#Digilent WaveForms Spectrum Analyzer
#Device Name: Discovery2
#Serial Number: SN:210321A1882E
#Date Time: 2018-05-21 18:52:47.755

Frequency (Hz),Trace 1 (dBV)
0,-50.919922678244632
4.8828125,-56.913923149823404
9.765625,-92.081874323868135
14.6484375,-90.753966810398992
19.53125,-90.238462214624434
24.4140625,-90.092830733121133
29.296875,-90.430552775570646
34.1796875,-90.424325459047381
39.0625,-90.697048189084654
43.9453125,-90.555410198497015
48.828125,-91.092618890161788
53.7109375,-91.159862074781515
58.59375,-89.666422096675106
63.4765625,-90.278693961882567
68.359375,-91.954030918113091
73.2421875,-92.457352456262512
78.125,-93.149436777389099
83.0078125,-92.382164005538513
87.890625,-92.81627865365499
92.7734375,-94.039998210686875
97.65625,-93.606848861976005
102.5390625,-94.039570853673439
107.421875,-94.661740604016842
112.3046875,-94.815651792054823
117.1875,-95.542814200400912
122.0703125,-95.290947452361877
126.953125,-95.484022508027863
131.8359375,-95.702825938507516
136.71875,-95.119454843497351
141.6015625,-95.093839858476201
146.484375,-95.774768932950565
151.3671875,-94.760246756012435
156.25,-94.4347694295965
161.1328125,-94.654892069245903
166.015625,-93.673353064770907
170.8984375,-92.821806458017946
175.78125,-92.983414168842842
180.6640625,-92.468423673002064
185.546875,-92.019968404121016
190.4296875,-92.087529108436598
195.3125,-91.063696763712983
200.1953125,-91.243393435129207
205.078125,-90.897903792535075
209.9609375,-90.632069474827205
214.84375,-90.103141784853108
219.7265625,-90.290217221488476
224.609375,-89.60280148855415
229.4921875,-89.261021731561797
234.375,-89.342554163307312
239.2578125,-89.595615534273477
244.140625,-90.286649522295875
249.0234375,-90.404141659209756
253.90625,-89.778490027712067
258.7890625,-89.387404221741008
263.671875,-90.072160052664643
268.5546875,-89.633700507066408
273.4375,-89.843334044747934
278.3203125,-89.3710948534316
283.203125,-89.595462521571648
288.0859375,-89.522461391684061
292.96875,-89.387813574256555
297.8515625,-90.341297522514438
302.734375,-91.291223106077609
307.6171875,-90.993733420296394
312.5,-90.49158675780204
317.3828125,-90.957399380995966
322.265625,-91.409031411260202
327.1484375,-91.632012252691879
332.03125,-92.143877528586358
336.9140625,-92.877545911676705
341.796875,-93.513049383598755
346.6796875,-93.777330950020982
351.5625,-94.054094423292312
356.4453125,-94.393339715004771
361.328125,-94.594730441992255
366.2109375,-95.784758068220242
371.09375,-95.229537011318456
375.9765625,-95.777853222640715
380.859375,-95.783325910757952
385.7421875,-95.792469429310913
390.625,-95.348551767179899
395.5078125,-95.752747988351672
400.390625,-95.685568536747297
405.2734375,-95.423258968900555
410.15625,-95.669116448688683
415.0390625,-94.839610099111127
419.921875,-94.320192334135754
424.8046875,-94.06871916833768
429.6875,-93.793796790121689
434.5703125,-93.233004483703553
439.453125,-92.607879489939094
444.3359375,-91.706199734816423
449.21875,-92.434601900947371
454.1015625,-91.880156094972136
458.984375,-91.278617354949105
463.8671875,-91.128572419386288
468.75,-90.975560776713209
473.6328125,-90.410329239828485
478.515625,-90.253517350961971
483.3984375,-89.990930393454946
488.28125,-89.268883327319202
493.1640625,-89.459738257528883
498.046875,-89.753119595187982
502.9296875,-90.305051048614587
507.8125,-89.771575368686314
512.6953125,-89.371281482406388
517.578125,-89.817625407377932
522.4609375,-89.686670829178354
527.34375,-89.280372922520144
532.2265625,-89.760821298196817
537.109375,-89.535542569544305
541.9921875,-90.214180969297303
546.875,-90.064094864322243
551.7578125,-89.813798507225442
556.640625,-90.701383887179361
561.5234375,-90.782893357079857
566.40625,-90.376071521861718
571.2890625,-91.162835222238101
576.171875,-91.654450386731014
581.0546875,-91.509785139588345
585.9375,-91.632970750902288
590.8203125,-91.674753868168267
595.703125,-92.732251756760547
600.5859375,-93.69466834348782
605.46875,-94.191410856936756
610.3515625,-93.92702120291311
615.234375,-94.256515890217713
620.1171875,-95.197795894016053
625,-95.224070291882271
629.8828125,-94.926690316411992
634.765625,-95.77214891729821
639.6484375,-96.067352960676885
644.53125,-95.796540889925524
649.4140625,-95.611034135857437
654.296875,-95.722441458810593
659.1796875,-95.530926680036998
664.0625,-95.113183374970589
668.9453125,-95.281540252764202
673.828125,-94.529542305266233
678.7109375,-94.387922329554414
683.59375,-93.993114540397315
688.4765625,-93.3704505402915
693.359375,-92.294660637613532
698.2421875,-92.503436362969381
703.125,-92.239453087155852
708.0078125,-92.240657448832991
712.890625,-92.067703161882491
717.7734375,-91.67667717634896
722.65625,-90.823909736403309
727.5390625,-90.815696264140087
732.421875,-90.908862845508494
737.3046875,-90.366895511196148
742.1875,-90.079151735712898
747.0703125,-90.26957070520811
751.953125,-90.110854804259318
756.8359375,-90.301408257739183
761.71875,-89.38518422467385
766.6015625,-89.635102728647823
771.484375,-89.592250461191242
776.3671875,-89.942087465031747
781.25,-89.869332884986633
786.1328125,-89.527738521809084
791.015625,-89.524311669956404
795.8984375,-89.378931221963512
800.78125,-89.947175530550325
805.6640625,-89.753811903333158
810.546875,-89.303196188600268
815.4296875,-90.271565618918117
820.3125,-90.405475641769911
825.1953125,-90.879814021360176
830.078125,-91.220908379238708
834.9609375,-91.556698336104304
839.84375,-92.407658338175452
844.7265625,-92.256949531990372
849.609375,-91.731477187956386
854.4921875,-92.859652091727128
859.375,-93.829818388380644
864.2578125,-93.366400265998749
869.140625,-94.338204401941425
874.0234375,-94.141763472858912
878.90625,-95.061007495283349
883.7890625,-95.722234431489113
888.671875,-96.450775012997269
893.5546875,-96.26964575281464
898.4375,-96.053753622235746
903.3203125,-95.833264276743336
908.203125,-95.842631962232758
913.0859375,-96.341315682052254
917.96875,-95.711415982391827
922.8515625,-94.91228431991216
927.734375,-94.442861154803097
932.6171875,-94.2380075982622
937.5,-93.833534106472584
942.3828125,-93.8541322751054
947.265625,-93.3915585060833
952.1484375,-92.990963715580065
957.03125,-92.943430483573778
961.9140625,-92.606988013462441
966.796875,-92.653989375546246
971.6796875,-91.80971367016565
976.5625,-91.354592997147421
981.4453125,-90.954492926330346
986.328125,-90.643596981843018
991.2109375,-90.481372078677651
996.09375,-90.369864085692484
1000.9765625,-89.466879593959376
1005.859375,-90.185589255609159
1010.7421875,-89.767975564972673
1015.625,-89.772740844170031
1020.5078125,-89.891831421808476
1025.390625,-89.108827444581479
1030.2734375,-88.886481373387824
1035.15625,-89.496232016428308
1040.0390625,-90.154327635215935
1044.921875,-89.613071156961936
1049.8046875,-89.61643939733645
1054.6875,-89.513069148699046
1059.5703125,-89.576427157740696
1064.453125,-89.867649852487716
1069.3359375,-90.703595172154579
1074.21875,-90.399054135027768
1079.1015625,-90.647289380195531
1083.984375,-90.388119317951151
1088.8671875,-91.076177170390082
1093.75,-91.367278063010332
1098.6328125,-91.673742046997845
1103.515625,-91.574608592653618
1108.3984375,-92.543742661927396
1113.28125,-93.702127992690009
1118.1640625,-93.533262348941534
1123.046875,-94.422754829327204
1127.9296875,-94.785546698299612
1132.8125,-94.486075934287214
1137.6953125,-94.758443649292161
1142.578125,-95.30332147640685
1147.4609375,-95.598794590781978
1152.34375,-95.867254433216274
1157.2265625,-95.780537332377449
1162.109375,-96.309392410015292
1166.9921875,-95.829495169270473
1171.875,-95.429779816656648
1176.7578125,-95.805969077863637
1181.640625,-95.455777395267191
1186.5234375,-94.780645089159378
1191.40625,-94.34893470058833
1196.2890625,-94.18036457964152
1201.171875,-93.742461681009928
1206.0546875,-92.925345952547019
1210.9375,-92.099246242972029
1215.8203125,-92.011453019549407
1220.703125,-91.967660063585072
1225.5859375,-92.239922746188071
1230.46875,-91.64845044310303
1235.3515625,-91.161871829908847
1240.234375,-91.342322016341839
1245.1171875,-90.401677952023363
1250,-90.519879086654072
1254.8828125,-91.163936857536441
1259.765625,-90.631303822368665
1264.6484375,-89.991037556024466
1269.53125,-90.257722663800592
1274.4140625,-89.564634047259432
1279.296875,-89.669278818083185
1284.1796875,-89.559446928836707
1289.0625,-89.66294626057001
1293.9453125,-89.572831095453836
1298.828125,-89.319801192895653
1303.7109375,-89.98211412318922
1308.59375,-89.70233772489874
1313.4765625,-90.232341023166995
1318.359375,-90.385882882795343
1323.2421875,-90.347176778327963
1328.125,-90.273507163923071
1333.0078125,-91.113679336732275
1337.890625,-90.533103405459045
1342.7734375,-90.991757452915593
1347.65625,-91.69709877938476
1352.5390625,-91.519433437529841
1357.421875,-91.749037731025581
1362.3046875,-92.87186602716011
1367.1875,-92.966008488407709
1372.0703125,-93.160164533593843
1376.953125,-93.291680985858932
1381.8359375,-94.165839582472586
1386.71875,-94.924482735522773
1391.6015625,-95.266368888230716
1396.484375,-95.698278818738757
1401.3671875,-96.177611664679887
1406.25,-96.457849594319981
1411.1328125,-96.719140348381245
1416.015625,-96.150524650005863
1420.8984375,-95.980496765027894
1425.78125,-95.507844419028373
1430.6640625,-95.09364237721384
1435.546875,-95.470832468166293
1440.4296875,-95.160388611045974
1445.3125,-95.006391390881859
1450.1953125,-94.812448387326668
1455.078125,-93.426486757108265
1459.9609375,-93.251640017256932
1464.84375,-92.849158650674397
1469.7265625,-92.08316138542871
1474.609375,-92.60429979155316
1479.4921875,-92.48611461976482
1484.375,-91.313382945666632
1489.2578125,-90.80485281051682
1494.140625,-90.83016665913469
1499.0234375,-90.421883844427413
1503.90625,-90.255750110018056
1508.7890625,-89.942838189390102
1513.671875,-90.163763015552718
1518.5546875,-89.963106117431522
1523.4375,-89.81725485229515
1528.3203125,-90.835506376737584
1533.203125,-90.74371595296553
1538.0859375,-89.520638277914145
1542.96875,-89.348152279574307
1547.8515625,-89.319387177470787
1552.734375,-89.54692224141661
1557.6171875,-89.74034510502689
1562.5,-89.375379330377115
1567.3828125,-90.268322789086454
1572.265625,-90.146590754218948
1577.1484375,-90.399357213200219
1582.03125,-90.42285258498228
1586.9140625,-90.459609636062339
1591.796875,-90.830247373813052
1596.6796875,-91.378752209402478
1601.5625,-91.301583889643311
1606.4453125,-91.835754310605012
1611.328125,-92.20558560278873
1616.2109375,-92.532016890136205
1621.09375,-93.362449561244546
1625.9765625,-92.998276115622915
1630.859375,-93.720435741727727
1635.7421875,-94.480876214162123
1640.625,-94.983406272742627
1645.5078125,-94.719375070692422
1650.390625,-95.020097729548752
1655.2734375,-95.806060527931422
1660.15625,-96.264357228376539
1665.0390625,-95.511939743804874
1669.921875,-95.775335225954422
1674.8046875,-95.661439522194996
1679.6875,-95.674949917201303
1684.5703125,-95.985232702273805
1689.453125,-95.202977693085927
1694.3359375,-95.038789829978981
1699.21875,-94.414867846260279
1704.1015625,-94.170290029152511
1708.984375,-94.220410803805436
1713.8671875,-93.529868417477061
1718.75,-92.366507435215951
1723.6328125,-92.902113355911013
1728.515625,-91.525096404999857
1733.3984375,-91.198986589036906
1738.28125,-91.4042765044058
1743.1640625,-90.669804160363313
1748.046875,-90.323601979608981
1752.9296875,-91.052691784343864
1757.8125,-90.508424843114867
1762.6953125,-91.164312542757784
1767.578125,-90.324293371547014
1772.4609375,-90.241317375392867
1777.34375,-89.251415631790991
1782.2265625,-88.997291544239147
1787.109375,-89.122804783234017
1791.9921875,-89.232179962614907
1796.875,-89.031770652939173
1801.7578125,-89.563410575025401
1806.640625,-89.046759861683014
1811.5234375,-89.811941515631176
1816.40625,-90.205831442289508
1821.2890625,-90.732976269314349
1826.171875,-90.191289950622433
1831.0546875,-90.841659003241745
1835.9375,-90.42569392077192
1840.8203125,-91.171377962919067
1845.703125,-91.224590169253986
1850.5859375,-91.866469678306174
1855.46875,-92.56407029078602
1860.3515625,-92.757972407328779
1865.234375,-92.717746186556468
1870.1171875,-92.596448529240831
1875,-93.425378652427355
1879.8828125,-94.753104267061047
1884.765625,-94.330074981680923
1889.6484375,-94.030843397829187
1894.53125,-94.685437031398308
1899.4140625,-95.07823710439439
1904.296875,-95.20162657687662
1909.1796875,-96.153905252408762
1914.0625,-96.153644248582054
1918.9453125,-95.701289075865901
1923.828125,-95.715054228235886
1928.7109375,-95.03846539448304
1933.59375,-95.514402504584808
1938.4765625,-95.649103945857235
1943.359375,-94.361398645648762
1948.2421875,-93.069438114189182
1953.125,-93.220651357585155
1958.0078125,-93.474657473346127
1962.890625,-92.484894706435497
1967.7734375,-92.692516922073779
1972.65625,-93.469697756734078
1977.5390625,-91.885789781711239
1982.421875,-91.465836142841397
1987.3046875,-91.466990202173974
1992.1875,-90.456305095323373
1997.0703125,-90.16387070008588
2001.953125,-90.17486321178319
2006.8359375,-90.330139476509743
2011.71875,-89.624888142135305
2016.6015625,-89.144189517758775
2021.484375,-89.161408921920867
2026.3671875,-89.210453501525549
2031.25,-89.310657290205526
2036.1328125,-89.969323014250136
2041.015625,-90.36567226614784
2045.8984375,-89.712048814002458
2050.78125,-89.909835773241639
2055.6640625,-90.123138018148381
2060.546875,-90.480457731093509
2065.4296875,-90.266936341369018
2070.3125,-90.111311033479069
2075.1953125,-90.011976094446652
2080.078125,-90.630923963324079
2084.9609375,-91.328464796788182
2089.84375,-92.092361137318449
2094.7265625,-91.967349447606836
2099.609375,-92.403078234344932
2104.4921875,-92.525909441247975
2109.375,-93.311840853884036
2114.2578125,-92.967228108350653
2119.140625,-94.146752732079264
2124.0234375,-94.249111993260541
2128.90625,-95.489154868853007
2133.7890625,-95.853707781480907
2138.671875,-95.815255853961474
2143.5546875,-96.334415474888928
2148.4375,-96.199161461801751
2153.3203125,-96.105415178666789
2158.203125,-95.659339908568896
2163.0859375,-95.914191649828396
2167.96875,-95.256759257527804
2172.8515625,-94.852489793242711
2177.734375,-94.095786642457014
2182.6171875,-94.080493521401479
2187.5,-92.931784823864263
2192.3828125,-93.425933031531059
2197.265625,-92.467502293702466
2202.1484375,-92.142759988646844
2207.03125,-91.894853825043086
2211.9140625,-90.922430703767603
2216.796875,-91.27112271801073
2221.6796875,-90.401196849160527
2226.5625,-90.618255957429994
2231.4453125,-90.716748406029552
2236.328125,-90.538632411253161
2241.2109375,-90.489191313332711
2246.09375,-89.82263056551264
2250.9765625,-89.554763855147854
2255.859375,-89.518502267479931
2260.7421875,-89.955655227808307
2265.625,-90.301189899121027
2270.5078125,-89.686025999755287
2275.390625,-89.520705423446969
2280.2734375,-90.046752904928525
2285.15625,-90.06431686502745
2290.0390625,-90.349276514373983
2294.921875,-90.404015144335986
2299.8046875,-90.396525745000446
2304.6875,-90.896044793131693
2309.5703125,-91.248311018638262
2314.453125,-91.112526074295062
2319.3359375,-90.877260043248896
2324.21875,-91.386118075315437
2329.1015625,-92.904392421255366
2333.984375,-92.79374527010809
2338.8671875,-93.671802755069521
2343.75,-93.778827200277277
2348.6328125,-94.989406161357763
2353.515625,-95.249561541951635
2358.3984375,-94.711531246160305
2363.28125,-95.330542772796875
2368.1640625,-96.297110280608905
2373.046875,-96.205730806586459
2377.9296875,-95.809933548005034
2382.8125,-95.676879370422654
2387.6953125,-95.43984026675021
2392.578125,-95.613291643264461
2397.4609375,-94.730032366043758
2402.34375,-94.393055903157276
2407.2265625,-93.836719997897092
2412.109375,-93.056511032403009
2416.9921875,-92.435344299825971
2421.875,-91.830473602234477
2426.7578125,-91.585742225534887
2431.640625,-91.711694427642698
2436.5234375,-91.303914352758753
2441.40625,-91.195573905373365
2446.2890625,-90.330199986950703
2451.171875,-90.016725285024279
2456.0546875,-90.392615494833876
2460.9375,-89.800154398960842
2465.8203125,-90.155012761048908
2470.703125,-89.768331362344583
2475.5859375,-89.708311795369809
2480.46875,-89.968619979622204
2485.3515625,-89.983992133826987
2490.234375,-89.910422675347633
2495.1171875,-90.215682064535429
2500,-90.174671720686135
2504.8828125,-90.120244849074979
2509.765625,-90.571385032102881
2514.6484375,-90.122257684260518
2519.53125,-91.885445403946846
2524.4140625,-92.617762394435658
2529.296875,-93.259909383904741
2534.1796875,-93.426930872367024
2539.0625,-93.607579478924322
2543.9453125,-94.481401854335644
2548.828125,-95.740894059048784
2553.7109375,-95.246369128905854
2558.59375,-95.79392496791229
2563.4765625,-96.254482365299324
2568.359375,-95.825410733099289
2573.2421875,-95.622581396152455
2578.125,-95.545495032355205
2583.0078125,-94.715350700586143
2587.890625,-93.9588519334974
2592.7734375,-92.839506832419389
2597.65625,-91.866133394511351
2602.5390625,-91.805829568007283
2607.421875,-91.460190780764762
2612.3046875,-90.460078110329533
2617.1875,-90.101015720915782
2622.0703125,-89.708116791757561
2626.953125,-90.087489268033579
2631.8359375,-90.14696218013485
2636.71875,-89.442800774593138
2641.6015625,-89.68210147689345
2646.484375,-89.695089995677563
2651.3671875,-90.123316888448826
2656.25,-90.793608479928864
2661.1328125,-91.607753677472502
2666.015625,-92.171891520601321
2670.8984375,-93.288548358649464
2675.78125,-94.152415436714705
2680.6640625,-95.470334583518621
2685.546875,-95.396329348571257
2690.4296875,-94.204031834749799
2695.3125,-92.306261380415449
2700.1953125,-89.874059176282955
2705.078125,-86.833143330279498
2709.9609375,-84.649168945875871
2714.84375,-83.218155681821088
2719.7265625,-81.382942349573739
2724.609375,-80.203998343957167
2729.4921875,-78.972924707345129
2734.375,-76.998816458239347
2739.2578125,-75.70937451751648
2744.140625,-74.970389184143443
2749.0234375,-74.06042332775516
2753.90625,-73.190620833657803
2758.7890625,-71.817077858399401
2763.671875,-71.142431106853422
2768.5546875,-69.820968882112624
2773.4375,-68.869115031777611
2778.3203125,-68.750720582012377
2783.203125,-67.654540516027993
2788.0859375,-67.191238977953475
2792.96875,-66.795341073524497
2797.8515625,-65.494507746754394
2802.734375,-65.182715110735344
2807.6171875,-64.580765224142382
2812.5,-63.397319594498391
2817.3828125,-62.437877772128289
2822.265625,-62.742163594656347
2827.1484375,-62.006381733941012
2832.03125,-61.799491225819651
2836.9140625,-60.319588522860919
2841.796875,-59.913507814610021
2846.6796875,-59.276548842892829
2851.5625,-59.184937360195498
2856.4453125,-58.978615626659384
2861.328125,-58.448494728633378
2866.2109375,-58.141607746761998
2871.09375,-57.608140797027303
2875.9765625,-56.816082389359018
2880.859375,-56.344378628693079
2885.7421875,-55.745510994167482
2890.625,-55.627370444025487
2895.5078125,-54.923129561262563
2900.390625,-54.435633780971422
2905.2734375,-53.780705240658655
2910.15625,-53.921660603389569
2915.0390625,-53.313647796063393
2919.921875,-52.357809049622389
2924.8046875,-52.395792842306754
2929.6875,-52.230527828516387
2934.5703125,-52.510334354400442
2939.453125,-52.080340887579695
2944.3359375,-51.863307636450415
2949.21875,-51.20980354946294
2954.1015625,-50.769597438891417
2958.984375,-50.934030703767029
2963.8671875,-50.465362193147627
2968.75,-49.407216982696454
2973.6328125,-49.875570691757112
2978.515625,-49.434088236905033
2983.3984375,-48.751436966736243
2988.28125,-48.978421109383305
2993.1640625,-48.632135147428215
2998.046875,-48.298470706964245
3002.9296875,-48.078393599723903
3007.8125,-47.645203159300465
3012.6953125,-47.401524145197456
3017.578125,-46.730935554111753
3022.4609375,-46.56889738505879
3027.34375,-47.152742419765048
3032.2265625,-46.383520092555777
3037.109375,-46.723111912992685
3041.9921875,-46.656415163279512
3046.875,-45.972420953602111
3051.7578125,-45.269733272259742
3056.640625,-45.10882881746813
3061.5234375,-45.611088667599645
3066.40625,-44.959007838892482
3071.2890625,-44.960179726986482
3076.171875,-44.893471588023353
3081.0546875,-44.955243313005028
3085.9375,-44.58812638411451
3090.8203125,-45.005811060071736
3095.703125,-43.718220190404679
3100.5859375,-43.969196004636373
3105.46875,-44.051054503096616
3110.3515625,-43.953391530374944
3115.234375,-44.091275695701995
3120.1171875,-43.910344905855858
3125,-43.713844414968221
3129.8828125,-43.306500654440711
3134.765625,-43.719817981665791
3139.6484375,-42.814195387837032
3144.53125,-42.629709226516653
3149.4140625,-43.204156252290915
3154.296875,-43.11030674189216
3159.1796875,-42.293094719422427
3164.0625,-42.11849522935124
3168.9453125,-42.535243696614472
3173.828125,-41.962248940843864
3178.7109375,-42.050478773984359
3183.59375,-41.93972220632137
3188.4765625,-42.108725975013371
3193.359375,-42.574953238728163
3198.2421875,-42.350837596872481
3203.125,-41.61410501165588
3208.0078125,-41.476672223280659
3212.890625,-41.684712450158798
3217.7734375,-41.857545007708062
3222.65625,-41.329724164699357
3227.5390625,-41.264561343715407
3232.421875,-41.827144021925974
3237.3046875,-40.984381244586878
3242.1875,-40.981840915310315
3247.0703125,-40.968073109596631
3251.953125,-41.422787205737777
3256.8359375,-41.919143184979092
3261.71875,-41.002369845488474
3266.6015625,-41.182891071308589
3271.484375,-41.644964543147069
3276.3671875,-41.342768844462199
3281.25,-42.051345453127794
3286.1328125,-41.589789257313967
3291.015625,-41.356751796462248
3295.8984375,-40.924038136467544
3300.78125,-41.155625676227231
3305.6640625,-41.431191685813999
3310.546875,-40.398797431342508
3315.4296875,-40.790988152147101
3320.3125,-40.816795083320201
3325.1953125,-40.884466544475693
3330.078125,-40.832498487265873
3334.9609375,-41.460286920797778
3339.84375,-40.781547355595379
3344.7265625,-41.005073167900676
3349.609375,-41.925656612455398
3354.4921875,-40.70965766357395
3359.375,-40.118665634957836
3364.2578125,-40.966943645111726
3369.140625,-40.253507436763286
3374.0234375,-41.503224224034
3378.90625,-40.816212841762933
3383.7890625,-40.763662838707248
3388.671875,-40.916185792322864
3393.5546875,-40.385238177274026
3398.4375,-40.87769062861517
3403.3203125,-41.041287865429965
3408.203125,-40.955633799631912
3413.0859375,-40.883327104910791
3417.96875,-41.525189498197605
3422.8515625,-40.803809037654794
3427.734375,-40.826561157191151
3432.6171875,-41.561203474505668
3437.5,-41.08077609618676
3442.3828125,-40.532867864037371
3447.265625,-40.848653430365623
3452.1484375,-40.646243834298744
3457.03125,-40.530841104292733
3461.9140625,-40.772911348802943
3466.796875,-40.546619128693216
3471.6796875,-41.180574908334435
3476.5625,-41.689663940552762
3481.4453125,-41.35133532780354
3486.328125,-40.965418556721083
3491.2109375,-41.584988762411797
3496.09375,-41.848355017626659
3500.9765625,-41.681711402135662
3505.859375,-41.556676588740665
3510.7421875,-41.126751763077472
3515.625,-41.388727775987199
3520.5078125,-41.649232635349279
3525.390625,-42.124557295419621
3530.2734375,-41.509660878164311
3535.15625,-41.476964794556523
3540.0390625,-40.648368031870064
3544.921875,-40.509007002104823
3549.8046875,-40.936327863657063
3554.6875,-41.501546396991067
3559.5703125,-41.673185173575021
3564.453125,-41.564965624274222
3569.3359375,-41.86715608928683
3574.21875,-42.027048865109549
3579.1015625,-42.378453503398518
3583.984375,-41.661760337308642
3588.8671875,-41.958861238510686
3593.75,-42.009162631644976
3598.6328125,-41.745005624780333
3603.515625,-42.13878065601638
3608.3984375,-41.653276372419761
3613.28125,-41.531643756177104
3618.1640625,-41.465531623827161
3623.046875,-42.079280961403008
3627.9296875,-42.201436749806895
3632.8125,-42.371672918318637
3637.6953125,-41.945935432910602
3642.578125,-42.125345606378524
3647.4609375,-41.786746944750035
3652.34375,-41.515622616265773
3657.2265625,-41.708769747922332
3662.109375,-41.810754735915665
3666.9921875,-41.943688214905698
3671.875,-41.8035623316336
3676.7578125,-42.27680607902812
3681.640625,-42.464777871335222
3686.5234375,-42.050670467082512
3691.40625,-41.873966259965087
3696.2890625,-41.389227876168711
3701.171875,-40.944334088717021
3706.0546875,-41.521035953518265
3710.9375,-41.674391423420673
3715.8203125,-41.7254565247028
3720.703125,-41.94432920049011
3725.5859375,-42.232202043471119
3730.46875,-41.163849569679442
3735.3515625,-41.367393352706436
3740.234375,-42.046024313719059
3745.1171875,-41.677225504052196
3750,-41.763795160588145
3754.8828125,-41.168041992957967
3759.765625,-41.584790019543874
3764.6484375,-41.694978423344516
3769.53125,-42.308006312435964
3774.4140625,-42.618374031748331
3779.296875,-41.99284550109234
3784.1796875,-41.636099608258696
3789.0625,-42.122782632330029
3793.9453125,-41.998986168744004
3798.828125,-41.297647578528426
3803.7109375,-41.4033962773795
3808.59375,-41.638091784348923
3813.4765625,-41.070178312829128
3818.359375,-41.666614818805634
3823.2421875,-41.582798369973773
3828.125,-41.323080239222854
3833.0078125,-41.781149648417227
3837.890625,-41.528361672987046
3842.7734375,-41.304731051688243
3847.65625,-41.140064740894296
3852.5390625,-40.469465822315129
3857.421875,-40.833775720136373
3862.3046875,-41.227988788952217
3867.1875,-40.708095551390748
3872.0703125,-40.610381524240104
3876.953125,-40.930297362614397
3881.8359375,-41.463244305086057
3886.71875,-41.109540435692182
3891.6015625,-41.308984327660795
3896.484375,-41.544258782096307
3901.3671875,-41.616264882872954
3906.25,-41.290172628330893
3911.1328125,-41.124169268519928
3916.015625,-40.298620056914238
3920.8984375,-40.757655684228745
3925.78125,-41.430990784053648
3930.6640625,-41.05336019623352
3935.546875,-41.297856774488359
3940.4296875,-41.808300543614067
3945.3125,-41.069208804522994
3950.1953125,-40.774886822770632
3955.078125,-40.618626245065315
3959.9609375,-40.430785712216412
3964.84375,-40.575148497095732
3969.7265625,-41.313042166473849
3974.609375,-41.070650474967785
3979.4921875,-41.371673380043312
3984.375,-41.032097371997338
3989.2578125,-40.710459132617558
3994.140625,-41.34811696258253
3999.0234375,-40.843786625178154
4003.90625,-39.953069820800501
4008.7890625,-40.33323942872439
4013.671875,-40.702950032611326
4018.5546875,-40.82757248243793
4023.4375,-41.073155139291593
4028.3203125,-40.90648889656579
4033.203125,-41.134156888202938
4038.0859375,-41.000231595134913
4042.96875,-41.179196010747631
4047.8515625,-41.025724169948461
4052.734375,-40.907635025027666
4057.6171875,-41.668612137851952
4062.5,-40.732758535695446
4067.3828125,-40.76123432684355
4072.265625,-40.781435192403904
4077.1484375,-40.979431443704826
4082.03125,-41.288788754812231
4086.9140625,-41.530305530465128
4091.796875,-40.949242315325137
4096.6796875,-41.263154718577169
4101.5625,-41.338260521028857
4106.4453125,-41.075654498534831
4111.328125,-40.808553902836906
4116.2109375,-41.43762476884288
4121.09375,-41.561211746660121
4125.9765625,-42.097140626863244
4130.859375,-41.967856521919359
4135.7421875,-40.877794158385505
4140.625,-40.917784398859482
4145.5078125,-40.833122108264142
4150.390625,-41.261740730755072
4155.2734375,-41.164172852485549
4160.15625,-41.60945647363225
4165.0390625,-40.734327369523946
4169.921875,-41.567730854292151
4174.8046875,-41.411133852393824
4179.6875,-41.025690130951787
4184.5703125,-41.268730261963206
4189.453125,-40.668391859176189
4194.3359375,-41.222982758774279
4199.21875,-41.310966597729852
4204.1015625,-41.420220447988576
4208.984375,-42.552826100701594
4213.8671875,-41.345195026960575
4218.75,-42.103469559683845
4223.6328125,-41.462766085437572
4228.515625,-41.563667346922287
4233.3984375,-41.490008142218819
4238.28125,-42.201149853333597
4243.1640625,-42.193860248517616
4248.046875,-41.443105663796601
4252.9296875,-41.315329868619727
4257.8125,-41.546092066731326
4262.6953125,-42.075661284717619
4267.578125,-41.583114922123457
4272.4609375,-42.074362754231743
4277.34375,-41.884129415734741
4282.2265625,-42.469059626059007
4287.109375,-41.83394562719905
4291.9921875,-41.959535172553373
4296.875,-41.118189106433903
4301.7578125,-41.745936849692839
4306.640625,-41.572286266093563
4311.5234375,-41.50110971600818
4316.40625,-41.649457620823824
4321.2890625,-41.0118336940372
4326.171875,-42.376221812029861
4331.0546875,-42.762418776418734
4335.9375,-42.378894486578218
4340.8203125,-41.965245383582619
4345.703125,-41.542417200828609
4350.5859375,-41.513779356560647
4355.46875,-41.360917848483226
4360.3515625,-41.457648478794944
4365.234375,-41.996426199765821
4370.1171875,-41.972196296489187
4375,-41.512327819726913
4379.8828125,-41.681886174087779
4384.765625,-41.853755576385943
4389.6484375,-41.923581756610517
4394.53125,-42.576500429688899
4399.4140625,-42.089756599716488
4404.296875,-41.399619054860473
4409.1796875,-41.259155773517627
4414.0625,-41.71508033756119
4418.9453125,-41.087434496434902
4423.828125,-41.303965038536823
4428.7109375,-41.923792524354582
4433.59375,-41.357985250507312
4438.4765625,-42.141439763056212
4443.359375,-41.905903145402988
4448.2421875,-41.707623431421261
4453.125,-41.723113981445152
4458.0078125,-41.049453721909686
4462.890625,-41.409279593738837
4467.7734375,-41.844719422831851
4472.65625,-42.357162375715305
4477.5390625,-42.177938192553832
4482.421875,-41.634564385244055
4487.3046875,-41.738861198502441
4492.1875,-42.146973188634348
4497.0703125,-41.762807955607066
4501.953125,-42.037406845824293
4506.8359375,-41.338458414339918
4511.71875,-42.080733836155446
4516.6015625,-41.576219072067303
4521.484375,-41.619457428309694
4526.3671875,-41.305443202138264
4531.25,-40.97029249422058
4536.1328125,-41.228997620903115
4541.015625,-41.001824488216066
4545.8984375,-41.28651741716088
4550.78125,-41.221257281111285
4555.6640625,-41.355869946415346
4560.546875,-41.437099084609955
4565.4296875,-41.545343809533748
4570.3125,-41.297554365049564
4575.1953125,-41.266079595607039
4580.078125,-40.556526625571109
4584.9609375,-40.755589537470286
4589.84375,-41.543542093522809
4594.7265625,-40.953630499187
4599.609375,-40.925697236552317
4604.4921875,-41.044242072318866
4609.375,-40.581596571153476
4614.2578125,-41.403532467230818
4619.140625,-40.880948271464788
4624.0234375,-40.572271491960365
4628.90625,-41.048494647853637
4633.7890625,-40.897650871421682
4638.671875,-41.052553283696753
4643.5546875,-41.129210093978372
4648.4375,-41.333478599748915
4653.3203125,-41.284963937343932
4658.203125,-41.108364389162944
4663.0859375,-41.3540911238115
4667.96875,-40.654084615034627
4672.8515625,-41.399283811776975
4677.734375,-41.01948342764701
4682.6171875,-40.954945892639685
4687.5,-41.224862619239005
4692.3828125,-41.031829004737318
4697.265625,-41.274496776509437
4702.1484375,-40.964952449921697
4707.03125,-40.522207394106154
4711.9140625,-40.772845539360446
4716.796875,-41.615277287928649
4721.6796875,-42.00543775672125
4726.5625,-40.958521865455154
4731.4453125,-41.043285156383305
4736.328125,-41.616038575454738
4741.2109375,-41.681868707972001
4746.09375,-41.263151159045151
4750.9765625,-41.621467946233111
4755.859375,-41.310485121694278
4760.7421875,-41.441947799169661
4765.625,-41.528478094609383
4770.5078125,-41.032241858460068
4775.390625,-41.663512389384849
4780.2734375,-41.866011708010433
4785.15625,-41.713299568053529
4790.0390625,-41.96401865941386
4794.921875,-41.733292633207341
4799.8046875,-41.744535064278324
4804.6875,-42.764396901411459
4809.5703125,-42.387230096816623
4814.453125,-42.321600682809198
4819.3359375,-42.08618293941548
4824.21875,-42.487108521888757
4829.1015625,-42.380549794920483
4833.984375,-42.788191588500709
4838.8671875,-41.927701292136959
4843.75,-43.14227913659348
4848.6328125,-43.004172346278331
4853.515625,-42.785641871694978
4858.3984375,-43.05082069561837
4863.28125,-43.789439363665686
4868.1640625,-43.060408997347146
4873.046875,-43.501221488373957
4877.9296875,-43.749827817270884
4882.8125,-43.805160160797399
4887.6953125,-44.014944660553809
4892.578125,-43.645338275525745
4897.4609375,-44.667743626034131
4902.34375,-44.619007048883581
4907.2265625,-44.968414322641408
4912.109375,-45.737355021962138
4916.9921875,-45.63986058432161
4921.875,-44.919229261992939
4926.7578125,-45.263668250225095
4931.640625,-45.185981794834731
4936.5234375,-45.488069460585095
4941.40625,-45.968339871416497
4946.2890625,-45.98932915316604
4951.171875,-46.642438263386651
4956.0546875,-46.047540630288822
4960.9375,-46.193925663306828
4965.8203125,-46.263538610893121
4970.703125,-46.840680262430318
4975.5859375,-47.254769523289902
4980.46875,-47.799979764921176
4985.3515625,-48.02608964192239
4990.234375,-48.130384371796325
4995.1171875,-47.464302900198831
5000,-47.748860349834999
5004.8828125,-48.266816887850922
5009.765625,-48.623083940237848
5014.6484375,-48.938163741419729
5019.53125,-49.597713899574735
5024.4140625,-49.399588430605952
5029.296875,-48.944541547415348
5034.1796875,-50.425658735650735
5039.0625,-50.739765616373859
5043.9453125,-50.865620309728278
5048.828125,-50.914215032488244
5053.7109375,-50.997702644908927
5058.59375,-51.277386711354382
5063.4765625,-52.590601513512787
5068.359375,-52.533649132911364
5073.2421875,-53.161068551734459
5078.125,-53.144298921350021
5083.0078125,-53.556650214151915
5087.890625,-54.380767964180031
5092.7734375,-54.915204888524947
5097.65625,-54.518898871220507
5102.5390625,-55.748551834150071
5107.421875,-55.656684428361139
5112.3046875,-55.889196945225436
5117.1875,-56.113837083189956
5122.0703125,-56.840738026841606
5126.953125,-57.546692859046132
5131.8359375,-57.54787842490871
5136.71875,-58.002440076309618
5141.6015625,-59.32701207456784
5146.484375,-59.960856718070943
5151.3671875,-60.198701956909247
5156.25,-60.348540664242222
5161.1328125,-61.158699329633549
5166.015625,-61.245714291280208
5170.8984375,-62.336049212103426
5175.78125,-62.685166068833823
5180.6640625,-63.428717850779186
5185.546875,-64.005168318622154
5190.4296875,-64.272383714527578
5195.3125,-65.277294657530376
5200.1953125,-65.711169308353618
5205.078125,-66.545223645880128
5209.9609375,-66.782418260481705
5214.84375,-68.231430054283237
5219.7265625,-68.55752725448562
5224.609375,-68.629311394398798
5229.4921875,-70.080371273915716
5234.375,-70.746261563182216
5239.2578125,-71.770047782252064
5244.140625,-73.533270213745922
5249.0234375,-74.372913710061809
5253.90625,-75.361995285357807
5258.7890625,-76.080144403465582
5263.671875,-77.2376615336225
5268.5546875,-78.543471489868324
5273.4375,-79.548649159799794
5278.3203125,-80.569097377761466
5283.203125,-82.282141704074249
5288.0859375,-84.136414954470098
5292.96875,-86.232306526750605
5297.8515625,-87.911525033722796
5302.734375,-90.434888276833121
5307.6171875,-93.49396114734941
5312.5,-95.069242359724939
5317.3828125,-95.302410783752805
5322.265625,-94.231709746704482
5327.1484375,-94.191023876748233
5332.03125,-93.237050879287793
5336.9140625,-92.167420307356039
5341.796875,-92.052961054721848
5346.6796875,-90.924209004865446
5351.5625,-90.886644317956225
5356.4453125,-90.135844567573088
5361.328125,-90.196023279974042
5366.2109375,-90.178544674883682
5371.09375,-89.546871697524551
5375.9765625,-89.942528417371022
5380.859375,-90.811728574515342
5385.7421875,-91.060560510911657
5390.625,-91.182118609882394
5395.5078125,-91.34809456117496
5400.390625,-91.999303378027179
5405.2734375,-92.50501539232836
5410.15625,-93.623727127067795
5415.0390625,-93.817938092292962
5419.921875,-94.933245028496231
5424.8046875,-95.152728556347768
5429.6875,-95.425170647983961
5434.5703125,-95.827847548244534
5439.453125,-95.596533060818842
5444.3359375,-95.388306102995244
5449.21875,-94.885359397611793
5454.1015625,-94.304222918929923
5458.984375,-93.737199431020287
5463.8671875,-93.361314982074646
5468.75,-92.42316362038946
5473.6328125,-92.225183731701861
5478.515625,-91.185355935109726
5483.3984375,-90.965824636272316
5488.28125,-91.096634564862512
5493.1640625,-90.937731105314754
5498.046875,-90.020766962457856
5502.9296875,-90.158819238516017
5507.8125,-90.089592591694597
5512.6953125,-89.883877873888252
5517.578125,-90.066471481754959
5522.4609375,-89.866993710929506
5527.34375,-89.761662217526833
5532.2265625,-89.641804174817921
5537.109375,-89.979452717837475
5541.9921875,-89.989897203494692
5546.875,-90.774243814449022
5551.7578125,-91.354620617514314
5556.640625,-91.25067584589074
5561.5234375,-91.021998146763792
5566.40625,-90.871561939081801
5571.2890625,-91.893842110667819
5576.171875,-92.62586392014893
5581.0546875,-92.624598074697616
5585.9375,-93.141660208112441
5590.8203125,-93.413698424843986
5595.703125,-94.004399281395848
5600.5859375,-93.789459422073691
5605.46875,-95.083472848160028
5610.3515625,-95.698560750550513
5615.234375,-95.759837559958726
5620.1171875,-95.804125143783693
5625,-96.198694228191513
5629.8828125,-95.416555822165236
5634.765625,-95.292639945106131
5639.6484375,-96.059184547521497
5644.53125,-95.450109009720478
5649.4140625,-94.726565887563865
5654.296875,-93.817274084909741
5659.1796875,-94.18877071197187
5664.0625,-92.823555641689538
5668.9453125,-92.498323377557327
5673.828125,-92.297276223357997
5678.7109375,-91.408273954273454
5683.59375,-91.66148365201451
5688.4765625,-91.633908195886164
5693.359375,-91.393268037246486
5698.2421875,-90.91308746936059
5703.125,-90.283242060265081
5708.0078125,-90.972029611524192
5712.890625,-90.01491791710626
5717.7734375,-90.038563957623978
5722.65625,-89.974050837472817
5727.5390625,-89.912512617886193
5732.421875,-90.012029232066624
5737.3046875,-90.110070807184172
5742.1875,-90.216484744119612
5747.0703125,-89.823201476392853
5751.953125,-90.044625332970497
5756.8359375,-90.255960764411881
5761.71875,-90.189592001991286
5766.6015625,-90.093422976868439
5771.484375,-90.58019108628136
5776.3671875,-90.980749325255402
5781.25,-90.986844302994342
5786.1328125,-91.128995438300308
5791.015625,-91.856269319331872
5795.8984375,-92.772815503803486
5800.78125,-93.362342878541241
5805.6640625,-92.915843560390257
5810.546875,-93.391073973115027
5815.4296875,-94.122094998658653
5820.3125,-94.743385127648239
5825.1953125,-94.876782234814925
5830.078125,-95.475144052845451
5834.9609375,-95.552736248934664
5839.84375,-95.944018747428316
5844.7265625,-96.402274659428258
5849.609375,-96.479926614398636
5854.4921875,-96.049009211181385
5859.375,-95.394611336996817
5864.2578125,-95.408824096365308
5869.140625,-95.212006452035567
5874.0234375,-94.727355252066531
5878.90625,-94.408676998612151
5883.7890625,-94.3640447449677
5888.671875,-93.610235837649185
5893.5546875,-93.104265715492787
5898.4375,-92.723643060565422
5903.3203125,-92.163546675528195
5908.203125,-91.409628714680906
5913.0859375,-91.681926272668179
5917.96875,-91.354941569206929
5922.8515625,-91.538698246376754
5927.734375,-91.226093248449573
5932.6171875,-91.059552191218842
5937.5,-91.032290736064084
5942.3828125,-90.556236816651165
5947.265625,-90.117118998968891
5952.1484375,-88.991213220816519
5957.03125,-89.580592789219949
5961.9140625,-89.963061004015543
5966.796875,-89.831223665820914
5971.6796875,-90.228639433020618
5976.5625,-90.055989247303643
5981.4453125,-89.971603920792603
5986.328125,-90.170655275633251
5991.2109375,-90.359604040381143
5996.09375,-89.942699401996933
6000.9765625,-90.73329189513376
6005.859375,-90.95448319461272
6010.7421875,-91.313202145670203
6015.625,-92.170558246326792
6020.5078125,-91.697778798370919
6025.390625,-91.702158420396543
6030.2734375,-91.993854478132292
6035.15625,-92.459128637063728
6040.0390625,-93.149782144199094
6044.921875,-93.757131040741442
6049.8046875,-93.508374834458294
6054.6875,-93.93460116109631
6059.5703125,-94.06529550279744
6064.453125,-95.24885179033943
6069.3359375,-95.368093323622389
6074.21875,-95.716504606122058
6079.1015625,-96.372229062224477
6083.984375,-96.419372057454709
6088.8671875,-96.326106639680162
6093.75,-96.97164461433232
6098.6328125,-96.337593504064813
6103.515625,-96.161854682300927
6108.3984375,-95.660459469433732
6113.28125,-95.487365007828942
6118.1640625,-94.379729517901453
6123.046875,-94.314472733412558
6127.9296875,-93.198843344892097
6132.8125,-92.58168842538295
6137.6953125,-93.023666812227432
6142.578125,-92.871386380148351
6147.4609375,-91.857210819360674
6152.34375,-91.31069468928996
6157.2265625,-91.899742169358817
6162.109375,-91.354864863906528
6166.9921875,-91.046266239576056
6171.875,-91.047371671413771
6176.7578125,-91.445912437946816
6181.640625,-90.237424452072446
6186.5234375,-89.88408481907625
6191.40625,-90.237816391820047
6196.2890625,-91.040014839228462
6201.171875,-90.615761210389692
6206.0546875,-90.579246805883713
6210.9375,-90.426471638140171
6215.8203125,-90.050072160657479
6220.703125,-90.607313929771863
6225.5859375,-91.14898047348558
6230.46875,-90.345135028539573
6235.3515625,-90.08640744691489
6240.234375,-90.692825296489701
6245.1171875,-91.042009787515411
6250,-90.455025517837612
6254.8828125,-90.773727421053849
6259.765625,-91.069391909966214
6264.6484375,-91.787157762473996
6269.53125,-92.481022350161481
6274.4140625,-92.32617927589672
6279.296875,-92.173147619823993
6284.1796875,-92.905692027188024
6289.0625,-92.970848979166817
6293.9453125,-93.349301693710288
6298.828125,-93.775623421663255
6303.7109375,-94.48052143007088
6308.59375,-95.044027958068412
6313.4765625,-95.905396366003899
6318.359375,-95.573934806441571
6323.2421875,-96.05122199653286
6328.125,-96.296042679768021
6333.0078125,-95.555078080411633
6337.890625,-95.283036518770558
6342.7734375,-95.290826393139895
6347.65625,-95.284968498305034
6352.5390625,-94.71526718561114
6357.421875,-95.5427086084471
6362.3046875,-95.449671753149659
6367.1875,-94.800488119343015
6372.0703125,-94.138122209409431
6376.953125,-93.773993741432733
6381.8359375,-93.156661561870123
6386.71875,-92.861719764222698
6391.6015625,-92.82156089391151
6396.484375,-92.920313555980584
6401.3671875,-92.182659789882649
6406.25,-91.625804663589605
6411.1328125,-91.219817745978702
6416.015625,-91.335644209053598
6420.8984375,-91.587380492490311
6425.78125,-90.200718229523773
6430.6640625,-90.654862803217796
6435.546875,-91.327943863498419
6440.4296875,-91.283827588487043
6445.3125,-90.289608758162103
6450.1953125,-90.056652099975508
6455.078125,-89.966143169647253
6459.9609375,-90.226010629417587
6464.84375,-90.824080453704738
6469.7265625,-90.455942711848522
6474.609375,-90.091485083167271
6479.4921875,-90.289954715535586
6484.375,-90.676670626851603
6489.2578125,-90.506872666042014
6494.140625,-89.776949018551676
6499.0234375,-90.683765076119386
6503.90625,-90.325079368300365
6508.7890625,-91.10588882064512
6513.671875,-91.423873051670896
6518.5546875,-91.979222985267356
6523.4375,-91.390368323710604
6528.3203125,-91.567402942659598
6533.203125,-92.542541542267784
6538.0859375,-92.793013984549745
6542.96875,-93.392380227596391
6547.8515625,-93.817282242187389
6552.734375,-94.001350798045706
6557.6171875,-94.197751415590631
6562.5,-94.834932530326114
6567.3828125,-94.929902619934992
6572.265625,-95.813033124583896
6577.1484375,-96.444408734155786
6582.03125,-95.879986317778418
6586.9140625,-95.820012994013425
6591.796875,-95.585002078540072
6596.6796875,-95.275170264523155
6601.5625,-95.282327824870364
6606.4453125,-94.807648816572865
6611.328125,-95.249440013396651
6616.2109375,-94.587085349005363
6621.09375,-93.699496532010528
6625.9765625,-93.157404853194805
6630.859375,-93.69282743381369
6635.7421875,-93.943152050984054
6640.625,-92.804818060453783
6645.5078125,-91.846282625895356
6650.390625,-92.342902595402791
6655.2734375,-91.964630999803646
6660.15625,-92.240853236784432
6665.0390625,-91.640113053237485
6669.921875,-91.538906833958549
6674.8046875,-91.15153890692082
6679.6875,-90.010883091430685
6684.5703125,-90.340491598932346
6689.453125,-90.28156382984902
6694.3359375,-90.139858360204471
6699.21875,-89.362858722987326
6704.1015625,-89.824633354230556
6708.984375,-90.166116621709875
6713.8671875,-89.921246246892977
6718.75,-90.146133359056506
6723.6328125,-90.434301917249826
6728.515625,-89.849382739921836
6733.3984375,-89.889907964287673
6738.28125,-89.820716798595143
6743.1640625,-90.586707791159498
6748.046875,-91.307516637014302
6752.9296875,-91.04264415057321
6757.8125,-91.309207958055168
6762.6953125,-91.06027774454634
6767.578125,-91.48409559357836
6772.4609375,-91.89012868677446
6777.34375,-91.897643161534845
6782.2265625,-91.994497898755085
6787.109375,-92.403600106557974
6791.9921875,-92.90301399707414
6796.875,-93.249009908220046
6801.7578125,-94.014950649285595
6806.640625,-94.284975125465877
6811.5234375,-94.924356956706148
6816.40625,-95.098747409486492
6821.2890625,-95.476083484707544
6826.171875,-95.90073516708047
6831.0546875,-95.994487318416773
6835.9375,-96.244065009632735
6840.8203125,-96.634167432915191
6845.703125,-95.626531269519148
6850.5859375,-96.134627919421405
6855.46875,-95.782783722252205
6860.3515625,-95.997120497273983
6865.234375,-95.451163930845041
6870.1171875,-95.014237172355564
6875,-94.664626834627583
6879.8828125,-94.794335896329926
6884.765625,-93.825593001675514
6889.6484375,-93.326748528529237
6894.53125,-93.705248583253706
6899.4140625,-93.242927175312815
6904.296875,-92.46073292474864
6909.1796875,-91.858271887987598
6914.0625,-91.79103123722642
6918.9453125,-91.389781072723665
6923.828125,-90.593698047242853
6928.7109375,-90.334280235801771
6933.59375,-90.502757518424545
6938.4765625,-91.280976734873164
6943.359375,-91.010081127321996
6948.2421875,-90.206434596437134
6953.125,-90.284287934416795
6958.0078125,-90.431966171776551
6962.890625,-90.58834046900617
6967.7734375,-90.644404261517408
6972.65625,-90.044961095945894
6977.5390625,-90.871011919791371
6982.421875,-90.424673391200741
6987.3046875,-89.827945867792266
6992.1875,-90.870403322646055
6997.0703125,-90.863781740375757
7001.953125,-90.547338142050563
7006.8359375,-90.306703684348477
7011.71875,-90.927972503426247
7016.6015625,-91.278858615681386
7021.484375,-91.677854560423611
7026.3671875,-91.746326159651119
7031.25,-91.472793902227281
7036.1328125,-92.072283484812573
7041.015625,-92.355359722693436
7045.8984375,-92.296553150734084
7050.78125,-92.676050597392106
7055.6640625,-93.202424014236897
7060.546875,-94.106604385208087
7065.4296875,-94.42326806260948
7070.3125,-93.89391555592843
7075.1953125,-94.39457452094905
7080.078125,-95.168825529437214
7084.9609375,-95.703086667899328
7089.84375,-95.493805166919188
7094.7265625,-96.247988573091448
7099.609375,-96.3141641678355
7104.4921875,-96.092103320615777
7109.375,-95.782419051306988
7114.2578125,-96.091902478143183
7119.140625,-95.346401437748682
7124.0234375,-95.570322475899729
7128.90625,-96.291870182818514
7133.7890625,-95.357275038859825
7138.671875,-94.541340852064252
7143.5546875,-94.469993830717044
7148.4375,-93.871604917323566
7153.3203125,-93.639377824683578
7158.203125,-93.504653637138546
7163.0859375,-92.365900837249612
7167.96875,-91.674224396885251
7172.8515625,-92.406467404838821
7177.734375,-92.195650442192573
7182.6171875,-91.469184168273557
7187.5,-91.319943197380695
7192.3828125,-90.776148982276084
7197.265625,-91.082970047193484
7202.1484375,-90.416393406705126
7207.03125,-89.971470816901103
7211.9140625,-90.428533681466917
7216.796875,-89.85476265601163
7221.6796875,-89.982672152050256
7226.5625,-89.726304045376409
7231.4453125,-90.052896641389765
7236.328125,-89.843727925876706
7241.2109375,-90.124443984376256
7246.09375,-90.168772657821577
7250.9765625,-90.08568061919604
7255.859375,-89.642993348209842
7260.7421875,-90.766714337963037
7265.625,-90.752082726433798
7270.5078125,-91.205688655115495
7275.390625,-91.23967416864096
7280.2734375,-90.866055862109292
7285.15625,-91.419653097075425
7290.0390625,-91.362997881273088
7294.921875,-92.023412930662815
7299.8046875,-92.686531511021485
7304.6875,-92.587345765079974
7309.5703125,-92.857318407046677
7314.453125,-93.246381393430298
7319.3359375,-93.457477132735448
7324.21875,-94.154744376709004
7329.1015625,-94.722551132134654
7333.984375,-95.26034089249157
7338.8671875,-95.445258586688212
7343.75,-95.624573810282101
7348.6328125,-95.714439442602227
7353.515625,-96.126287585006224
7358.3984375,-96.173495990773986
7363.28125,-96.313982837239806
7368.1640625,-95.937531413481565
7373.046875,-96.447726258142836
7377.9296875,-96.105206547398524
7382.8125,-95.097906127341588
7387.6953125,-95.422111554682346
7392.578125,-94.668536566458087
7397.4609375,-94.686495043386401
7402.34375,-94.497160923312634
7407.2265625,-93.604158340396083
7412.109375,-93.645449264124082
7416.9921875,-92.850524536595373
7421.875,-92.899697770561858
7426.7578125,-92.677259558127503
7431.640625,-91.475353889671169
7436.5234375,-91.74365592264698
7441.40625,-91.547503422913849
7446.2890625,-91.171245221760529
7451.171875,-90.73047668507391
7456.0546875,-91.156421051656068
7460.9375,-90.691192567892003
7465.8203125,-90.998639409234386
7470.703125,-90.779978550972942
7475.5859375,-90.337604899426481
7480.46875,-90.866136774703989
7485.3515625,-90.32893625042405
7490.234375,-89.650380800048282
7495.1171875,-89.639356257456271
7500,-89.864410510685985
7504.8828125,-90.478896881632494
7509.765625,-91.205152318108546
7514.6484375,-90.310805022799499
7519.53125,-90.221900682968823
7524.4140625,-90.3332314251372
7529.296875,-90.514314147890147
7534.1796875,-91.081743666416656
7539.0625,-90.982717007546711
7543.9453125,-91.242065292033985
7548.828125,-91.751022626186739
7553.7109375,-92.755139703379825
7558.59375,-93.42216838561842
7563.4765625,-92.8303563438796
7568.359375,-92.970537662428399
7573.2421875,-93.433579995140576
7578.125,-94.014170835685377
7583.0078125,-94.032658940143705
7587.890625,-95.125801966378333
7592.7734375,-95.323927826904622
7597.65625,-95.625367615577289
7602.5390625,-96.210456251632067
7607.421875,-95.96682452377388
7612.3046875,-96.147404879174601
7617.1875,-95.728733582175067
7622.0703125,-96.065909597971682
7626.953125,-96.230891388592426
7631.8359375,-95.993582356466888
7636.71875,-95.34258382722183
7641.6015625,-96.015262023675035
7646.484375,-95.682684563692618
7651.3671875,-95.196849511278771
7656.25,-94.242115090122937
7661.1328125,-94.346487412048447
7666.015625,-93.181003471741519
7670.8984375,-93.620248714810032
7675.78125,-93.535556233141421
7680.6640625,-93.3899110912308
7685.546875,-92.10029546870453
7690.4296875,-92.032045535849164
7695.3125,-92.110016685190885
7700.1953125,-91.588643426858738
7705.078125,-90.530978760436156
7709.9609375,-90.605793765201966
7714.84375,-91.510741364260113
7719.7265625,-91.269957696738615
7724.609375,-90.621070417126589
7729.4921875,-90.531809261734665
7734.375,-89.824377364409287
7739.2578125,-90.166854635371308
7744.140625,-90.475256305358855
7749.0234375,-89.730693380005334
7753.90625,-89.652313042727172
7758.7890625,-90.134967639860463
7763.671875,-90.591020594981785
7768.5546875,-90.656864981534412
7773.4375,-90.776863192515847
7778.3203125,-90.761025265469527
7783.203125,-90.028547087972171
7788.0859375,-90.269446021623722
7792.96875,-90.562881763402032
7797.8515625,-90.307334335544141
7802.734375,-90.697825728977421
7807.6171875,-91.559019598487907
7812.5,-91.478694494934629
7817.3828125,-92.17707561395116
7822.265625,-92.478812726284318
7827.1484375,-92.703706971532597
7832.03125,-92.789345239461269
7836.9140625,-93.767060243841655
7841.796875,-93.511032091938915
7846.6796875,-93.723872927779794
7851.5625,-94.504235041847153
7856.4453125,-95.734687769339644
7861.328125,-95.079754044699115
7866.2109375,-96.003743377880099
7871.09375,-96.882576844996436
7875.9765625,-96.22465377636901
7880.859375,-95.7785148437017
7885.7421875,-95.976206240315506
7890.625,-96.554521542564203
7895.5078125,-95.689866075462632
7900.390625,-95.66358136998339
7905.2734375,-95.52188410234082
7910.15625,-94.490959793012536
7915.0390625,-94.591336743396937
7919.921875,-94.732187409726905
7924.8046875,-94.612209316666991
7929.6875,-94.469831861120326
7934.5703125,-93.370356822037124
7939.453125,-92.930946662026614
7944.3359375,-92.68422629829908
7949.21875,-91.983955786781664
7954.1015625,-92.238395477353791
7958.984375,-92.28024417628562
7963.8671875,-91.363448079183172
7968.75,-91.385638279070278
7973.6328125,-90.508119083594437
7978.515625,-90.328013124808251
7983.3984375,-90.625059979378506
7988.28125,-90.134635928543915
7993.1640625,-90.161869951080419
7998.046875,-89.974902416975993
8002.9296875,-89.876647001135623
8007.8125,-89.584773405320675
8012.6953125,-90.486135039029534
8017.578125,-90.554515589924819
8022.4609375,-90.89871693947029
8027.34375,-90.643784815688392
8032.2265625,-90.871111625790917
8037.109375,-90.467715271418257
8041.9921875,-90.701448505588644
8046.875,-90.927410649595316
8051.7578125,-91.304745361386921
8056.640625,-91.764009361343255
8061.5234375,-91.515979259904583
8066.40625,-91.697087758654476
8071.2890625,-91.938624898172179
8076.171875,-92.250307720613179
8081.0546875,-92.176252638717074
8085.9375,-93.685931398832849
8090.8203125,-93.203450375256296
8095.703125,-93.353356446203378
8100.5859375,-93.572715435313029
8105.46875,-93.788362904288931
8110.3515625,-94.716574079036221
8115.234375,-94.507090503963056
8120.1171875,-95.284964453227531
8125,-96.163661749153704
8129.8828125,-95.650210788212064
8134.765625,-96.110873415628646
8139.6484375,-96.405811342584627
8144.53125,-95.554844912906475
8149.4140625,-95.957336917036741
8154.296875,-96.451334598327847
8159.1796875,-96.297863130695191
8164.0625,-95.822962395796552
8168.9453125,-94.609943421332204
8173.828125,-94.808347366320419
8178.7109375,-94.081159680677132
8183.59375,-93.886876871831191
8188.4765625,-93.973477824128523
8193.359375,-93.47006916434232
8198.2421875,-93.414601748363026
8203.125,-93.754612398956965
8208.0078125,-92.833238913094362
8212.890625,-92.169978016772305
8217.7734375,-92.629470994617293
8222.65625,-91.999054162135252
8227.5390625,-91.695662702840821
8232.421875,-90.868461513996635
8237.3046875,-90.649174592132184
8242.1875,-90.44286342397271
8247.0703125,-90.794276883602777
8251.953125,-91.041200569001745
8256.8359375,-90.873969739295433
8261.71875,-91.190316369675031
8266.6015625,-90.805776507758708
8271.484375,-90.363949135729399
8276.3671875,-90.686640290837417
8281.25,-90.535482697055215
8286.1328125,-90.385158200467416
8291.015625,-90.424829052397442
8295.8984375,-90.134172907992308
8300.78125,-90.359490658518325
8305.6640625,-90.737652377681599
8310.546875,-90.608765352511597
8315.4296875,-90.994948533854071
8320.3125,-91.258103246638797
8325.1953125,-90.890445871009206
8330.078125,-91.927631785914201
8334.9609375,-91.999776886923456
8339.84375,-92.160929684298083
8344.7265625,-92.551382432927838
8349.609375,-92.470843824433175
8354.4921875,-92.972509712826195
8359.375,-94.321581705524181
8364.2578125,-94.11065828938824
8369.140625,-93.749229563325557
8374.0234375,-94.402572750627854
8378.90625,-95.257881196078699
8383.7890625,-95.370524626257676
8388.671875,-95.184717023086137
8393.5546875,-95.573195075513468
8398.4375,-96.423016564216951
8403.3203125,-96.626666049320875
8408.203125,-96.093107323631102
8413.0859375,-95.679271855776761
8417.96875,-95.665762085514544
8422.8515625,-95.797281255194036
8427.734375,-95.771434888013189
8432.6171875,-95.494769161507065
8437.5,-95.094017881662609
8442.3828125,-95.246296373624929
8447.265625,-93.787975976001604
8452.1484375,-93.715510867290632
8457.03125,-92.994445916137892
8461.9140625,-92.185061590540045
8466.796875,-92.734792126639746
8471.6796875,-92.364551415684858
8476.5625,-91.673833162655683
8481.4453125,-91.260316107060717
8486.328125,-91.365172233999942
8491.2109375,-91.74377264714083
8496.09375,-91.006797951404479
8500.9765625,-90.687847265677064
8505.859375,-90.79540913786586
8510.7421875,-90.546922588496045
8515.625,-90.980647306708121
8520.5078125,-90.74591084699982
8525.390625,-91.030826833982246
8530.2734375,-90.644705436266293
8535.15625,-91.140934829653474
8540.0390625,-90.560162279827253
8544.921875,-89.879671305691602
8549.8046875,-90.451783775435004
8554.6875,-90.875693579714323
8559.5703125,-90.774006376826875
8564.453125,-91.292277912671622
8569.3359375,-90.947667039868577
8574.21875,-91.12989700192324
8579.1015625,-90.895187153155646
8583.984375,-91.322472868392651
8588.8671875,-91.893244984386726
8593.75,-92.753041551618225
8598.6328125,-93.10007847207865
8603.515625,-93.317405564084851
8608.3984375,-93.446083480887239
8613.28125,-93.244375278381767
8618.1640625,-93.390459876144092
8623.046875,-93.083416003086711
8627.9296875,-93.858282711434754
8632.8125,-94.48458099162923
8637.6953125,-94.624786707903922
8642.578125,-94.724929224413216
8647.4609375,-95.262019702242299
8652.34375,-95.809446641783751
8657.2265625,-96.240895658313661
8662.109375,-96.282581614640975
8666.9921875,-95.739059566212816
8671.875,-95.759786346834019
8676.7578125,-96.085277003787184
8681.640625,-95.344685337558985
8686.5234375,-95.767002964116415
8691.40625,-95.097621630890757
8696.2890625,-95.508057374649212
8701.171875,-95.043543824197087
8706.0546875,-94.207426711129486
8710.9375,-94.08761448447008
8715.8203125,-93.890030455254916
8720.703125,-93.271365316523273
8725.5859375,-92.791325713314663
8730.46875,-93.360358600808766
8735.3515625,-92.848869168602945
8740.234375,-92.081571665873298
8745.1171875,-91.590138231285692
8750,-91.756372328798903
8754.8828125,-91.35084303498806
8759.765625,-91.854632483859504
8764.6484375,-91.093242150771204
8769.53125,-90.913585517426213
8774.4140625,-90.693238049548839
8779.296875,-90.437881618423006
8784.1796875,-90.480994616059164
8789.0625,-90.943700280755863
8793.9453125,-90.606416744088634
8798.828125,-90.808308272395237
8803.7109375,-90.597572665474246
8808.59375,-90.43049181786175
8813.4765625,-91.33769237731741
8818.359375,-90.557722966709591
8823.2421875,-90.606998821737164
8828.125,-91.004019436464475
8833.0078125,-91.508821183223802
8837.890625,-92.029201701882698
8842.7734375,-90.690068486017466
8847.65625,-91.252147119865754
8852.5390625,-91.818666361339552
8857.421875,-92.538157054875469
8862.3046875,-92.706475519718353
8867.1875,-91.728404743485072
8872.0703125,-92.34161494433053
8876.953125,-93.223615392224147
8881.8359375,-93.754440080889125
8886.71875,-93.938216247598589
8891.6015625,-94.589385266587769
8896.484375,-94.434960113327278
8901.3671875,-94.142924789648831
8906.25,-94.336087770024179
8911.1328125,-94.961161631608931
8916.015625,-95.252956598271965
8920.8984375,-96.025178831140892
8925.78125,-96.54167608323985
8930.6640625,-96.068969355186411
8935.546875,-96.306016902909946
8940.4296875,-96.325020990507568
8945.3125,-96.081381394178521
8950.1953125,-95.858601463613752
8955.078125,-95.102538623635994
8959.9609375,-94.976031464064931
8964.84375,-95.120303620688489
8969.7265625,-94.546569609716983
8974.609375,-93.304804267605704
8979.4921875,-93.331538087293623
8984.375,-93.303331375410579
8989.2578125,-93.134512063055297
8994.140625,-92.83627005785506
8999.0234375,-91.777574499628614
9003.90625,-92.223884064996952
9008.7890625,-91.85359692123231
9013.671875,-91.507929855839876
9018.5546875,-92.098382521817413
9023.4375,-91.467973264187762
9028.3203125,-90.894529309192393
9033.203125,-90.81675830131141
9038.0859375,-90.867305495996305
9042.96875,-91.239958447764167
9047.8515625,-90.862878976336049
9052.734375,-90.968637321293855
9057.6171875,-90.85576823664978
9062.5,-90.644772015295757
9067.3828125,-89.787162415780529
9072.265625,-90.319852194775365
9077.1484375,-90.471206219703916
9082.03125,-90.733357345247697
9086.9140625,-91.084102690707653
9091.796875,-90.708622962992749
9096.6796875,-90.918802795476466
9101.5625,-90.799096323869321
9106.4453125,-90.826464982051505
9111.328125,-91.481985677861474
9116.2109375,-91.90857286750132
9121.09375,-91.195420603824417
9125.9765625,-91.6028476610214
9130.859375,-92.599279315620407
9135.7421875,-92.651046192981312
9140.625,-92.775872379163957
9145.5078125,-93.437101203460728
9150.390625,-93.422684246302694
9155.2734375,-93.874621989821179
9160.15625,-94.592591105487273
9165.0390625,-95.534514874628059
9169.921875,-96.052966522674268
9174.8046875,-96.158463997191475
9179.6875,-96.133389555439791
9184.5703125,-96.181824446472959
9189.453125,-96.722545408008642
9194.3359375,-96.327014674429932
9199.21875,-96.581799359289647
9204.1015625,-95.850247257307743
9208.984375,-96.829296641191007
9213.8671875,-95.350511729002648
9218.75,-95.640551004299738
9223.6328125,-95.190676342948336
9228.515625,-95.018965097072581
9233.3984375,-95.121831989441603
9238.28125,-94.941019429960406
9243.1640625,-93.995360959647073
9248.046875,-93.634425900277591
9252.9296875,-93.614569584560428
9257.8125,-92.62445967223681
9262.6953125,-92.411434550797807
9267.578125,-92.319706408495179
9272.4609375,-91.633635168869006
9277.34375,-90.685425158354604
9282.2265625,-91.911391458986387
9287.109375,-91.325043743788171
9291.9921875,-91.274053524460783
9296.875,-90.981802958983039
9301.7578125,-90.587619925669117
9306.640625,-91.122758676901356
9311.5234375,-90.828667454827496
9316.40625,-90.170623373997756
9321.2890625,-90.018089636501642
9326.171875,-90.400035986846177
9331.0546875,-90.383917282334224
9335.9375,-90.150742353328837
9340.8203125,-90.711690350059285
9345.703125,-90.720438368115865
9350.5859375,-90.998773634207907
9355.46875,-91.031293442670105
9360.3515625,-90.452465527068512
9365.234375,-91.080890816400427
9370.1171875,-91.265899698506345
9375,-91.591808474878718
9379.8828125,-92.320303145554718
9384.765625,-92.437577908250773
9389.6484375,-92.114135271248685
9394.53125,-92.415785038927595
9399.4140625,-93.399104703359058
9404.296875,-93.560975759081003
9409.1796875,-93.178194330918686
9414.0625,-93.761668293542598
9418.9453125,-94.092979374358876
9423.828125,-94.378018316564606
9428.7109375,-94.662978130175361
9433.59375,-95.550724385784335
9438.4765625,-95.858550423857139
9443.359375,-96.783816405266407
9448.2421875,-96.294819953490673
9453.125,-95.586175682836512
9458.0078125,-95.838594124237289
9462.890625,-96.085542502935141
9467.7734375,-96.524179343698421
9472.65625,-96.160658706594248
9477.5390625,-95.09645791551263
9482.421875,-95.317712703587105
9487.3046875,-95.590262714776031
9492.1875,-95.008705247610436
9497.0703125,-93.985993822314128
9501.953125,-93.603584020876426
9506.8359375,-94.174784910782975
9511.71875,-93.155328973965581
9516.6015625,-92.676798320252345
9521.484375,-92.51260926044506
9526.3671875,-92.067084109026382
9531.25,-91.697104156600986
9536.1328125,-91.650451331829913
9541.015625,-91.32784035772579
9545.8984375,-91.735129560520136
9550.78125,-91.194575648616748
9555.6640625,-90.73799609560902
9560.546875,-90.89165278259442
9565.4296875,-91.021255697716455
9570.3125,-90.867011330091543
9575.1953125,-89.948810146445169
9580.078125,-90.313790027246313
9584.9609375,-90.550458273288399
9589.84375,-90.677046164021135
9594.7265625,-90.149839880742405
9599.609375,-90.124498607901714
9604.4921875,-90.67095965990994
9609.375,-90.372194318614135
9614.2578125,-90.568531781622738
9619.140625,-90.616196249033806
9624.0234375,-91.263319462586253
9628.90625,-91.085664339612407
9633.7890625,-91.487587326160849
9638.671875,-91.907802557043311
9643.5546875,-91.81586871626547
9648.4375,-91.431266514271229
9653.3203125,-91.719720129881935
9658.203125,-92.257919955198844
9663.0859375,-92.206254438936725
9667.96875,-92.45782423290629
9672.8515625,-93.248351239483483
9677.734375,-93.917714989917371
9682.6171875,-94.654292393604294
9687.5,-94.985363946372203
9692.3828125,-94.982426281214856
9697.265625,-95.639025148968528
9702.1484375,-95.642437337904227
9707.03125,-95.478467498451622
9711.9140625,-95.905280890628077
9716.796875,-95.775967701965072
9721.6796875,-95.852123225490601
9726.5625,-95.321222585367991
9731.4453125,-95.82872706504952
9736.328125,-96.050232148131798
9741.2109375,-95.46814141980127
9746.09375,-95.645699039925418
9750.9765625,-94.802144953431366
9755.859375,-94.707068879326414
9760.7421875,-94.85608644364288
9765.625,-94.885297864470303
9770.5078125,-94.231208790835495
9775.390625,-93.358575347017222
9780.2734375,-93.180124312816233
9785.15625,-92.710253842820819
9790.0390625,-92.80234530692745
9794.921875,-92.831195071519574
9799.8046875,-92.221309104136367
9804.6875,-91.772301210125477
9809.5703125,-91.748133670334866
9814.453125,-91.71987253224502
9819.3359375,-90.856630934452397
9824.21875,-90.931188840523433
9829.1015625,-91.370731268273119
9833.984375,-90.709173551523463
9838.8671875,-91.157565058103785
9843.75,-90.819248822732362
9848.6328125,-90.666701837897023
9853.515625,-91.221300601399932
9858.3984375,-90.643493747016322
9863.28125,-90.925219928876942
9868.1640625,-90.833520853190265
9873.046875,-90.611446014213641
9877.9296875,-90.767669634330218
9882.8125,-91.174307691651236
9887.6953125,-91.356615309232026
9892.578125,-90.944123834420964
9897.4609375,-91.174505509760095
9902.34375,-91.634897199247746
9907.2265625,-91.443137208234447
9912.109375,-91.360059410358787
9916.9921875,-91.739566827943804
9921.875,-92.108745570127496
9926.7578125,-92.304763792469302
9931.640625,-93.140138163925656
9936.5234375,-93.966100957209093
9941.40625,-94.951741326854844
9946.2890625,-94.359533373630654
9951.171875,-94.223248330890272
9956.0546875,-95.062671809785286
9960.9375,-94.89819960467571
9965.8203125,-95.101488979225337
9970.703125,-95.789972137338481
9975.5859375,-95.653830686404717
9980.46875,-96.201824389383091
9985.3515625,-95.953349150284282
9990.234375,-96.524773634581678
9995.1171875,-95.958850216537215
10000,-95.347272328432169
10004.8828125,-95.014461022586033
10009.765625,-94.646907111003472
10014.6484375,-94.886907746808959
10019.53125,-95.030426368832877
10024.4140625,-94.825552424646133
10029.296875,-94.649252179910775
10034.1796875,-93.593779652187322
10039.0625,-93.636699129602263
10043.9453125,-92.921789758824204
10048.828125,-93.053669770000681
10053.7109375,-92.225127103950484
10058.59375,-91.851380819370618
10063.4765625,-91.465192577606018
10068.359375,-91.484304485491748
10073.2421875,-91.167728904738809
10078.125,-90.840328159295964
10083.0078125,-91.717356818109081
10087.890625,-91.188924032673611
10092.7734375,-90.901703639178479
10097.65625,-90.488284907074231
10102.5390625,-90.597155880631504
10107.421875,-90.772282808968441
10112.3046875,-90.292221815223996
10117.1875,-90.064067124859747
10122.0703125,-90.585316120539375
10126.953125,-91.307179089880194
10131.8359375,-91.474218764591555
10136.71875,-91.000163957352029
10141.6015625,-91.224320589993241
10146.484375,-91.131457576554666
10151.3671875,-91.227982467088935
10156.25,-91.319722946192101
10161.1328125,-91.269225569165087
10166.015625,-91.933713193690124
10170.8984375,-92.297207028059219
10175.78125,-92.514667316003184
10180.6640625,-92.912351890393836
10185.546875,-93.009782508649451
10190.4296875,-93.014411042123228
10195.3125,-93.428600166350719
10200.1953125,-93.156087051979824
10205.078125,-94.056266846070997
10209.9609375,-94.245539901995443
10214.84375,-95.081440677015763
10219.7265625,-94.416301163005372
10224.609375,-94.052834385729014
10229.4921875,-94.702273756671573
10234.375,-95.682580916096668
10239.2578125,-96.101080337920024
10244.140625,-96.238200818183117
10249.0234375,-96.128364449768355
10253.90625,-96.657226871259041
10258.7890625,-96.306625845512613
10263.671875,-95.726661183794278
10268.5546875,-95.867793382427351
10273.4375,-95.042137718870663
10278.3203125,-95.17351373118764
10283.203125,-95.34075946996623
10288.0859375,-94.392098456913828
10292.96875,-94.442091020604479
10297.8515625,-93.610244478971865
10302.734375,-93.740365738491874
10307.6171875,-93.471955055987365
10312.5,-92.841349610842414
10317.3828125,-92.568621542281605
10322.265625,-92.192758863542096
10327.1484375,-92.220474582505588
10332.03125,-92.284302285367176
10336.9140625,-91.982529421813155
10341.796875,-91.501532338598537
10346.6796875,-91.169880751628767
10351.5625,-90.996063954027079
10356.4453125,-90.941555967902858
10361.328125,-91.350007151892768
10366.2109375,-91.576226725654976
10371.09375,-91.035982334444654
10375.9765625,-90.538495911400631
10380.859375,-90.795897755923164
10385.7421875,-90.624962487029691
10390.625,-90.573300834237486
10395.5078125,-90.379203516555918
10400.390625,-91.169713401537734
10405.2734375,-90.718500525850914
10410.15625,-90.649306670224732
10415.0390625,-90.494454576205356
10419.921875,-91.459475750968465
10424.8046875,-91.615904710971535
10429.6875,-91.826488600147101
10434.5703125,-91.36192846131955
10439.453125,-92.321620946547824
10444.3359375,-92.512193401685309
10449.21875,-92.905856394976368
10454.1015625,-93.459931013397124
10458.984375,-93.05751306201735
10463.8671875,-94.269751477810374
10468.75,-93.67810234507688
10473.6328125,-94.143154575365756
10478.515625,-95.43911830566158
10483.3984375,-95.725600910888019
10488.28125,-95.213843546157563
10493.1640625,-95.84144253817108
10498.046875,-95.731901488126724
10502.9296875,-96.491598385614466
10507.8125,-96.753345316264912
10512.6953125,-96.375048821194781
10517.578125,-96.367316936078566
10522.4609375,-96.024904919837127
10527.34375,-96.293976002186938
10532.2265625,-95.59107516105081
10537.109375,-95.39831293575358
10541.9921875,-95.518405292290609
10546.875,-95.250727673541263
10551.7578125,-94.221990345767807
10556.640625,-92.920594232463941
10561.5234375,-93.500263736771416
10566.40625,-93.276733535216593
10571.2890625,-93.013195869747491
10576.171875,-92.587842794422073
10581.0546875,-92.850225350320827
10585.9375,-93.009783780309917
10590.8203125,-91.865917720274012
10595.703125,-91.713160754371032
10600.5859375,-91.874992926189805
10605.46875,-92.012110261453159
10610.3515625,-91.864823371536048
10615.234375,-91.575139317469635
10620.1171875,-91.135227185801767
10625,-91.088505175079391
10629.8828125,-90.331225878800225
10634.765625,-90.80672773397913
10639.6484375,-91.011818219072637
10644.53125,-91.109989925727433
10649.4140625,-90.895839889598591
10654.296875,-90.870049992968859
10659.1796875,-90.806892126388959
10664.0625,-91.275706059014041
10668.9453125,-91.012175588391074
10673.828125,-91.280081010295945
10678.7109375,-90.958408881349087
10683.59375,-92.283838070741254
10688.4765625,-91.869556851114012
10693.359375,-92.047278097570313
10698.2421875,-91.758606839686365
10703.125,-91.918779759890711
10708.0078125,-92.718877253463518
10712.890625,-92.659751497282599
10717.7734375,-92.902028378924015
10722.65625,-93.060116253236785
10727.5390625,-93.875469789936673
10732.421875,-93.637047244123849
10737.3046875,-93.508057076579036
10742.1875,-94.261534568926237
10747.0703125,-95.282707081538604
10751.953125,-95.075501606128199
10756.8359375,-95.299482789122493
10761.71875,-95.626957122671996
10766.6015625,-96.655275619398225
10771.484375,-95.884928830949008
10776.3671875,-95.147576395587549
10781.25,-95.774756906953499
10786.1328125,-96.210204502822563
10791.015625,-96.559136913478213
10795.8984375,-96.486290752775005
10800.78125,-95.806719010731882
10805.6640625,-95.09681949030805
10810.546875,-94.989335946724196
10815.4296875,-94.705471759738856
10820.3125,-94.135186630448956
10825.1953125,-93.567097124936041
10830.078125,-93.345818748717321
10834.9609375,-93.257703305791253
10839.84375,-91.963782610582925
10844.7265625,-91.946094793105374
10849.609375,-92.586947554578728
10854.4921875,-92.54723121201836
10859.375,-92.402717166521768
10864.2578125,-92.41040202977743
10869.140625,-92.277814788867062
10874.0234375,-91.357187724852551
10878.90625,-91.171197500033315
10883.7890625,-91.094494807430152
10888.671875,-91.389897845067253
10893.5546875,-91.292378625261591
10898.4375,-90.79164524982609
10903.3203125,-91.034131884867634
10908.203125,-90.725812381914892
10913.0859375,-90.50384567849369
10917.96875,-90.759206441824389
10922.8515625,-90.799312331068109
10927.734375,-90.280478239664774
10932.6171875,-89.812136099717009
10937.5,-90.425411913903133
10942.3828125,-91.011304116473212
10947.265625,-90.915490058317744
10952.1484375,-91.343283252213453
10957.03125,-90.629795560349379
10961.9140625,-91.847957919775496
10966.796875,-92.049942367733109
10971.6796875,-92.146680965555561
10976.5625,-91.950942244035502
10981.4453125,-92.86443229611362
10986.328125,-93.233787935891414
10991.2109375,-93.613863970932158
10996.09375,-93.239489159703069
11000.9765625,-93.326900023384638
11005.859375,-93.719798724088221
11010.7421875,-94.72299707514054
11015.625,-94.376175792933793
11020.5078125,-95.310821763648846
11025.390625,-95.696417440992875
11030.2734375,-95.282081698885307
11035.15625,-95.499302365542462
11040.0390625,-95.52442426722439
11044.921875,-95.234839774626053
11049.8046875,-95.367511270017999
11054.6875,-94.52317389770613
11059.5703125,-94.767570435793559
11064.453125,-95.202992229105291
11069.3359375,-94.878481817878679
11074.21875,-94.810065500184038
11079.1015625,-94.121126490712399
11083.984375,-93.492372442074725
11088.8671875,-93.825178632035261
11093.75,-92.921681632274101
11098.6328125,-93.041955732444904
11103.515625,-93.319876298798462
11108.3984375,-91.869852171551756
11113.28125,-91.7166266091848
11118.1640625,-91.699105145093995
11123.046875,-91.878030021201397
11127.9296875,-90.886933575012591
11132.8125,-90.834658811960352
11137.6953125,-91.421032386656066
11142.578125,-90.695387564343562
11147.4609375,-90.411855484356622
11152.34375,-90.009741553544856
11157.2265625,-90.36674955095593
11162.109375,-89.227169918745446
11166.9921875,-89.907490610384315
11171.875,-90.293082422468558
11176.7578125,-90.425349307905165
11181.640625,-89.993533189596604
11186.5234375,-90.092355858613473
11191.40625,-90.741438392460779
11196.2890625,-90.327815538317125
11201.171875,-90.03698574994003
11206.0546875,-89.996055626648101
11210.9375,-90.473936574471665
11215.8203125,-90.197735569147937
11220.703125,-91.696562722825632
11225.5859375,-91.460479883604492
11230.46875,-90.522629601197451
11235.3515625,-90.725605658772551
11240.234375,-91.548529822595697
11245.1171875,-92.124171220538088
11250,-91.61249484081543
11254.8828125,-92.658104517185919
11259.765625,-92.443872143494318
11264.6484375,-93.072193419131182
11269.53125,-92.235171056021073
11274.4140625,-92.979722662745786
11279.296875,-93.53766081451306
11284.1796875,-94.136226440632683
11289.0625,-94.10570642876317
11293.9453125,-93.917432776787791
11298.828125,-93.758447911793169
11303.7109375,-93.84755086146771
11308.59375,-93.66486348918977
11313.4765625,-93.757068521201717
11318.359375,-93.292451836168198
11323.2421875,-93.743727061416195
11328.125,-93.765963551515568
11333.0078125,-93.446460680757781
11337.890625,-93.358080898928847
11342.7734375,-92.486089475822297
11347.65625,-92.263904987731408
11352.5390625,-93.039728154055283
11357.421875,-92.370976317469569
11362.3046875,-91.581647987196689
11367.1875,-92.062158961619588
11372.0703125,-91.824884489407012
11376.953125,-91.415755760697863
11381.8359375,-91.072925708133695
11386.71875,-90.995600165754524
11391.6015625,-91.01078405187414
11396.484375,-90.566988839004864
11401.3671875,-90.544471976352426
11406.25,-90.701010141247053
11411.1328125,-90.104868839444237
11416.015625,-90.19419169368436
11420.8984375,-89.919099656700325
11425.78125,-90.945741878617326
11430.6640625,-89.765312280800032
11435.546875,-90.055930283566113
11440.4296875,-89.573091676946547
11445.3125,-90.139333736247821
11450.1953125,-90.45036304406473
11455.078125,-89.864930916295265
11459.9609375,-89.408170675740479
11464.84375,-89.738023513183762
11469.7265625,-90.072380554831398
11474.609375,-90.482795987404856
11479.4921875,-91.107061731515159
11484.375,-90.768478641347912
11489.2578125,-91.023053011047523
11494.140625,-91.908767814490474
11499.0234375,-91.453691211277729
11503.90625,-92.303594149060331
11508.7890625,-91.247026195887116
11513.671875,-91.702799368367764
11518.5546875,-92.099096455992935
11523.4375,-92.184314311902682
11528.3203125,-92.742648050382087
11533.203125,-92.902079854400611
11538.0859375,-93.515666382926526
11542.96875,-93.006238911350906
11547.8515625,-93.499682027518332
11552.734375,-92.901870449132232
11557.6171875,-93.68614630753116
11562.5,-93.854806721493105
11567.3828125,-94.127434980438977
11572.265625,-94.258868155253367
11577.1484375,-93.830497209181445
11582.03125,-94.594326021850378
11586.9140625,-94.40891992792632
11591.796875,-93.659712776587043
11596.6796875,-93.780222105463224
11601.5625,-93.21345757007164
11606.4453125,-93.747879646572358
11611.328125,-92.939393721830498
11616.2109375,-92.915030940168919
11621.09375,-92.473219219507428
11625.9765625,-93.512187565262309
11630.859375,-92.53632386926698
11635.7421875,-91.330212355023605
11640.625,-91.438592694351286
11645.5078125,-91.320128509837161
11650.390625,-90.726183522892882
11655.2734375,-90.422684763429899
11660.15625,-91.690905706809247
11665.0390625,-90.482591830585307
11669.921875,-90.02300899150265
11674.8046875,-90.643082684310514
11679.6875,-90.8337246003221
11684.5703125,-90.464753032361202
11689.453125,-90.32850686733299
11694.3359375,-90.246717545117733
11699.21875,-90.102997915446423
11704.1015625,-89.91850972772238
11708.984375,-89.899616052634201
11713.8671875,-90.006482449049571
11718.75,-90.250879137851655
11723.6328125,-91.128152634887869
11728.515625,-91.091286012954981
11733.3984375,-90.931182474139149
11738.28125,-90.344698472157518
11743.1640625,-90.179454375693638
11748.046875,-90.456762448693325
11752.9296875,-91.068093803680341
11757.8125,-91.046828260129871
11762.6953125,-91.756126173168937
11767.578125,-91.319573368508713
11772.4609375,-91.502276231682217
11777.34375,-92.421555310660253
11782.2265625,-92.834669303629823
11787.109375,-92.931654107565365
11791.9921875,-92.8311050535399
11796.875,-93.460647025344173
11801.7578125,-93.674585054212187
11806.640625,-93.288743241442361
11811.5234375,-93.735244027679002
11816.40625,-92.854344218076434
11821.2890625,-93.389287621925575
11826.171875,-93.974217656635233
11831.0546875,-94.050097657716634
11835.9375,-93.963097842481545
11840.8203125,-93.569823631218455
11845.703125,-93.269361507661927
11850.5859375,-93.424740465785277
11855.46875,-93.227640758667732
11860.3515625,-92.416951401733968
11865.234375,-92.715340619969197
11870.1171875,-92.567015354844742
11875,-92.308326144901457
11879.8828125,-91.907780489044285
11884.765625,-92.877663320874888
11889.6484375,-91.82476600534541
11894.53125,-91.750148804403977
11899.4140625,-91.655059149135397
11904.296875,-91.300725109206468
11909.1796875,-90.857178573773439
11914.0625,-90.451522358928713
11918.9453125,-90.448538798299992
11923.828125,-89.811164481019802
11928.7109375,-90.316612404954739
11933.59375,-90.165589262955606
11938.4765625,-90.709690385473351
11943.359375,-90.765251610831243
11948.2421875,-90.667388237066348
11953.125,-90.381462500680925
11958.0078125,-90.212640436904806
11962.890625,-90.069735270805552
11967.7734375,-89.602406356294665
11972.65625,-90.449151909061172
11977.5390625,-90.006149198915111
11982.421875,-90.551860458614627
11987.3046875,-90.540286192185562
11992.1875,-90.034431698125729
11997.0703125,-90.275331001848429
12001.953125,-90.297123422409868
12006.8359375,-90.632733690947177
12011.71875,-90.207453627936388
12016.6015625,-90.055568933838174
12021.484375,-91.251361356420105
12026.3671875,-90.194802688207645
12031.25,-90.631855406343519
12036.1328125,-91.085603362521269
12041.015625,-91.385330242989482
12045.8984375,-92.312392347979412
12050.78125,-91.82973121989113
12055.6640625,-92.327623914386351
12060.546875,-92.296313012428925
12065.4296875,-92.410148654347935
12070.3125,-92.354305534058639
12075.1953125,-92.633026025249649
12080.078125,-92.576024800456878
12084.9609375,-93.143586372499669
12089.84375,-93.096099824306279
12094.7265625,-93.763201845849181
12099.609375,-94.154271564248702
12104.4921875,-94.015020580765096
12109.375,-94.016680433784501
12114.2578125,-93.879826699885996
12119.140625,-93.531484981707322
12124.0234375,-93.921263020200044
12128.90625,-92.371378339026009
12133.7890625,-92.609536709935071
12138.671875,-93.330215217962149
12143.5546875,-92.088540712167344
12148.4375,-91.950328678944089
12153.3203125,-92.55666183313879
12158.203125,-92.528555315423972
12163.0859375,-91.555315909633848
12167.96875,-92.10615177114596
12172.8515625,-91.751246268666904
12177.734375,-90.893814607126899
12182.6171875,-91.738328275089941
12187.5,-90.765364815584618
12192.3828125,-90.673461903483329
12197.265625,-90.803930885282512
12202.1484375,-90.87256949274591
12207.03125,-90.294282897231298
12211.9140625,-89.742037315334628
12216.796875,-90.010062941581708
12221.6796875,-90.777143238304333
12226.5625,-90.611007757583792
12231.4453125,-90.992385382935126
12236.328125,-90.836996612396419
12241.2109375,-90.189293488157873
12246.09375,-90.166073903070142
12250.9765625,-90.387137790500347
12255.859375,-90.075079293448823
12260.7421875,-90.071525255842587
12265.625,-90.331501294482393
12270.5078125,-90.260454348809205
12275.390625,-90.999147835891719
12280.2734375,-91.641876221929991
12285.15625,-91.42935656026502
12290.0390625,-91.056348627580817
12294.921875,-91.718948880701134
12299.8046875,-91.831702327773002
12304.6875,-91.977477948723674
12309.5703125,-92.255616320587492
12314.453125,-92.995058974127232
12319.3359375,-92.496501345669117
12324.21875,-93.259695108211744
12329.1015625,-93.152217036146695
12333.984375,-93.696393712318866
12338.8671875,-93.567271600733633
12343.75,-93.26442972712087
12348.6328125,-93.185231773230328
12353.515625,-92.96819426037159
12358.3984375,-93.667331441520531
12363.28125,-94.020618606766888
12368.1640625,-93.726613661148519
12373.046875,-93.867758818904491
12377.9296875,-93.887694343715623
12382.8125,-93.880958341075285
12387.6953125,-93.638664242561049
12392.578125,-93.68830066168492
12397.4609375,-93.371644581100085
12402.34375,-93.116451463542504
12407.2265625,-92.958400362503966
12412.109375,-92.638431033036426
12416.9921875,-92.3836368982046
12421.875,-92.07060926880493
12426.7578125,-92.196948501862295
12431.640625,-91.635750772475419
12436.5234375,-91.197124589604499
12441.40625,-91.847424909459917
12446.2890625,-90.231942784080559
12451.171875,-90.274685745533532
12456.0546875,-90.285085119092457
12460.9375,-89.896384883556593
12465.8203125,-89.803605691713656
12470.703125,-90.611326653378157
12475.5859375,-90.497115874593788
12480.46875,-89.880313253891359
12485.3515625,-90.356296484527675
12490.234375,-90.105602408300584
12495.1171875,-90.321421664364735
12500,-90.064553087302187
12504.8828125,-90.298310292397034
12509.765625,-90.07450965467757
12514.6484375,-89.887177981909247
12519.53125,-90.881719908063673
12524.4140625,-90.673492796001725
12529.296875,-90.600294182454704
12534.1796875,-90.800765862469873
12539.0625,-90.784354936873285
12543.9453125,-90.566887359061042
12548.828125,-91.113190190011323
12553.7109375,-91.302324084113323
12558.59375,-91.449023684443347
12563.4765625,-91.432283581180627
12568.359375,-91.359015835265112
12573.2421875,-92.153255612814334
12578.125,-91.754554614145746
12583.0078125,-91.927348674167604
12587.890625,-91.906026124831783
12592.7734375,-92.445002319102201
12597.65625,-93.041211624265102
12602.5390625,-92.68842979137608
12607.421875,-91.959710039681468
12612.3046875,-93.121925721263295
12617.1875,-93.436302917525254
12622.0703125,-93.609359397807168
12626.953125,-93.411289188567267
12631.8359375,-93.319722198677354
12636.71875,-93.83911697838991
12641.6015625,-93.423380727702977
12646.484375,-92.97981843065989
12651.3671875,-93.248429651532376
12656.25,-92.655953384483624
12661.1328125,-92.93144207618974
12666.015625,-92.638995139372042
12670.8984375,-92.943616223315274
12675.78125,-92.889351637575729
12680.6640625,-92.732951835056795
12685.546875,-92.317555875142887
12690.4296875,-91.708235993963314
12695.3125,-90.817086865523962
12700.1953125,-91.284092514431649
12705.078125,-91.346638170077284
12709.9609375,-90.43821470514645
12714.84375,-90.638205882598243
12719.7265625,-90.885126699136705
12724.609375,-90.748307708709405
12729.4921875,-90.958071324958084
12734.375,-89.72596530505966
12739.2578125,-89.768466277297023
12744.140625,-89.391839433495704
12749.0234375,-89.583008525507552
12753.90625,-90.174015411457887
12758.7890625,-90.486260995606202
12763.671875,-90.731136662001731
12768.5546875,-90.753748819677966
12773.4375,-90.413066019496824
12778.3203125,-90.190177468966226
12783.203125,-90.414487517323579
12788.0859375,-90.457088762252027
12792.96875,-90.460057494592377
12797.8515625,-91.032359611119617
12802.734375,-90.958133521056567
12807.6171875,-91.115550745199755
12812.5,-91.151343396117639
12817.3828125,-91.434010560264142
12822.265625,-91.85395340620282
12827.1484375,-91.656627735172762
12832.03125,-91.925892686241596
12836.9140625,-92.123890709791723
12841.796875,-92.171782346985495
12846.6796875,-92.69076437226488
12851.5625,-93.412811454399716
12856.4453125,-93.321767473928986
12861.328125,-93.474468107329173
12866.2109375,-93.765916340294041
12871.09375,-93.207627620437052
12875.9765625,-94.038918678892912
12880.859375,-94.476449398486949
12885.7421875,-94.203628806202332
12890.625,-95.115364175558312
12895.5078125,-95.766189446110261
12900.390625,-94.918489685584746
12905.2734375,-95.318823245278764
12910.15625,-94.739421413827486
12915.0390625,-94.545296286602223
12919.921875,-94.410907605341976
12924.8046875,-94.385687026777276
12929.6875,-93.974797517524834
12934.5703125,-93.377916758952495
12939.453125,-93.437482382899788
12944.3359375,-92.85719944781863
12949.21875,-92.538866749411454
12954.1015625,-92.453624897077844
12958.984375,-91.917279989372119
12963.8671875,-92.886729440574328
12968.75,-91.596191117334413
12973.6328125,-91.725471964710167
12978.515625,-91.802274282728078
12983.3984375,-92.313587341172664
12988.28125,-91.81791390419157
12993.1640625,-91.020138071508384
12998.046875,-90.51594962967377
13002.9296875,-91.052943932307372
13007.8125,-91.710134124117943
13012.6953125,-91.558091779020685
13017.578125,-90.799569745231722
13022.4609375,-90.965957211395576
13027.34375,-90.672007151487932
13032.2265625,-90.876398689063208
13037.109375,-90.916251144799219
13041.9921875,-91.807320316836211
13046.875,-90.854264658850298
13051.7578125,-91.497893020238038
13056.640625,-90.93880611128391
13061.5234375,-91.301019498516652
13066.40625,-91.655057968242076
13071.2890625,-91.59359137499699
13076.171875,-92.142943425932089
13081.0546875,-92.672854985828849
13085.9375,-93.273209229563037
13090.8203125,-92.333743724218948
13095.703125,-92.814267201354141
13100.5859375,-93.734559267826569
13105.46875,-93.56203131795229
13110.3515625,-94.410596588842509
13115.234375,-95.033290919726056
13120.1171875,-94.222983864654438
13125,-94.589190316339
13129.8828125,-95.104774403755755
13134.765625,-95.855305900980994
13139.6484375,-95.854903461726138
13144.53125,-95.371889553298317
13149.4140625,-96.024932457755909
13154.296875,-96.508840132484437
13159.1796875,-96.402301263632552
13164.0625,-97.2371234963652
13168.9453125,-96.341011952196695
13173.828125,-95.38880784879666
13178.7109375,-95.401402744387568
13183.59375,-95.650970657751515
13188.4765625,-95.095676994067389
13193.359375,-94.89239821298105
13198.2421875,-95.640009602660456
13203.125,-94.795231306692699
13208.0078125,-94.330384791962672
13212.890625,-93.745707860490853
13217.7734375,-93.518360433860266
13222.65625,-93.775506671602699
13227.5390625,-93.197940758919742
13232.421875,-93.096863444861327
13237.3046875,-92.806269510039044
13242.1875,-92.107871560669992
13247.0703125,-93.117866053231154
13251.953125,-92.377169556604869
13256.8359375,-92.210545028234321
13261.71875,-91.913286231176954
13266.6015625,-91.694120522680691
13271.484375,-91.20103754199279
13276.3671875,-91.687565872497487
13281.25,-91.691978779572253
13286.1328125,-91.339056684288806
13291.015625,-90.800328790822405
13295.8984375,-91.608114449983788
13300.78125,-92.032653390939814
13305.6640625,-91.984849343963958
13310.546875,-92.288408635298936
13315.4296875,-91.487336016007603
13320.3125,-91.33423759992337
13325.1953125,-91.207331869795638
13330.078125,-90.81052722463113
13334.9609375,-91.428962193170207
13339.84375,-92.207340785812804
13344.7265625,-91.81889326116459
13349.609375,-92.101595537008222
13354.4921875,-92.663601012643824
13359.375,-93.157902192579485
13364.2578125,-92.920693734314654
13369.140625,-93.640279666546803
13374.0234375,-94.04995552265126
13378.90625,-93.82220893226426
13383.7890625,-94.247268235594035
13388.671875,-94.646020336867281
13393.5546875,-94.960036435807083
13398.4375,-95.020460356002374
13403.3203125,-95.52733587788488
13408.203125,-96.118288610084889
13413.0859375,-96.002860387541929
13417.96875,-96.32410129751932
13422.8515625,-96.226117077622902
13427.734375,-96.630460485239638
13432.6171875,-95.819389346651349
13437.5,-96.321195743576155
13442.3828125,-95.844894313100482
13447.265625,-95.649390371623198
13452.1484375,-95.1578628489289
13457.03125,-95.435029320198055
13461.9140625,-95.913150375318352
13466.796875,-95.302226972027199
13471.6796875,-95.008544930449915
13476.5625,-94.264671807005683
13481.4453125,-94.363957076104612
13486.328125,-93.386867493809604
13491.2109375,-93.415498853516937
13496.09375,-92.733054527872923
13500.9765625,-92.156187178267984
13505.859375,-92.433914443791679
13510.7421875,-92.246714105672112
13515.625,-91.699311415290921
13520.5078125,-92.023766018034451
13525.390625,-92.201284337997933
13530.2734375,-91.912886978667544
13535.15625,-91.22199059648436
13540.0390625,-91.536480023003804
13544.921875,-91.749270546889719
13549.8046875,-91.133884970119908
13554.6875,-91.091498342223574
13559.5703125,-91.693959808475981
13564.453125,-91.599124093697526
13569.3359375,-91.842218630860359
13574.21875,-91.266666904477333
13579.1015625,-91.154803280306581
13583.984375,-91.995418858176961
13588.8671875,-92.195785544428347
13593.75,-92.004581833631789
13598.6328125,-91.654699328758596
13603.515625,-91.68186863903685
13608.3984375,-92.219019508564614
13613.28125,-92.997356348658087
13618.1640625,-93.597973670016842
13623.046875,-93.485680355586126
13627.9296875,-93.178194391608841
13632.8125,-93.666623752344975
13637.6953125,-94.659761071176248
13642.578125,-95.06214747242737
13647.4609375,-95.380022700590473
13652.34375,-95.153262770747887
13657.2265625,-95.362855175262226
13662.109375,-95.419026086709835
13666.9921875,-95.811438941494828
13671.875,-95.674893734202371
13676.7578125,-95.596938798677243
13681.640625,-96.680436540130017
13686.5234375,-96.548377051383511
13691.40625,-96.845345546369657
13696.2890625,-96.310836668168932
13701.171875,-95.635665170600561
13706.0546875,-95.524057104541598
13710.9375,-95.124141113235595
13715.8203125,-94.935901245960025
13720.703125,-95.021845251672943
13725.5859375,-94.910639741070469
13730.46875,-94.189508954383825
13735.3515625,-94.638019445051555
13740.234375,-93.906057676442757
13745.1171875,-93.044585560520716
13750,-93.77213519127406
13754.8828125,-93.143392230681613
13759.765625,-92.996346547442741
13764.6484375,-92.808915715359291
13769.53125,-92.299187928757817
13774.4140625,-92.251522705646266
13779.296875,-92.466633976526978
13784.1796875,-92.406486159771205
13789.0625,-92.06258405908693
13793.9453125,-91.248450266753153
13798.828125,-91.783463446477413
13803.7109375,-91.474304160246348
13808.59375,-91.481634388786176
13813.4765625,-91.736551287116242
13818.359375,-91.240138716649483
13823.2421875,-91.136750299673565
13828.125,-90.482924708507326
13833.0078125,-91.516607742903133
13837.890625,-91.368856165571856
13842.7734375,-92.296843322245792
13847.65625,-91.833095304254357
13852.5390625,-92.311999143710608
13857.421875,-92.360539207653275
13862.3046875,-92.689968205662296
13867.1875,-92.665892395108926
13872.0703125,-92.265192094363101
13876.953125,-91.503771006013693
13881.8359375,-92.940617487691242
13886.71875,-92.626248950401646
13891.6015625,-93.019575411257463
13896.484375,-92.92890390705773
13901.3671875,-94.11627918784464
13906.25,-94.38542411273167
13911.1328125,-94.526675725313567
13916.015625,-94.775492910310518
13920.8984375,-94.942298491066651
13925.78125,-95.609410090485255
13930.6640625,-96.222719990376945
13935.546875,-95.93114928224368
13940.4296875,-95.888716595958883
13945.3125,-96.161181254367108
13950.1953125,-96.728350049663518
13955.078125,-96.556119110804261
13959.9609375,-95.998315073873869
13964.84375,-96.519671472649463
13969.7265625,-96.541486734052796
13974.609375,-96.005933759367551
13979.4921875,-95.964286299878353
13984.375,-95.408818967655776
13989.2578125,-94.852194401240254
13994.140625,-94.386200652190482
13999.0234375,-94.210454987375158
14003.90625,-93.755726388566927
14008.7890625,-93.927040369879066
14013.671875,-94.263086077097284
14018.5546875,-93.761616533081323
14023.4375,-93.358079305695838
14028.3203125,-92.703600088745077
14033.203125,-92.41544762529962
14038.0859375,-92.1602294144609
14042.96875,-92.079528119714666
14047.8515625,-92.225243737016427
14052.734375,-91.571927368701154
14057.6171875,-91.646269399477518
14062.5,-91.918890632252769
14067.3828125,-91.829594741396349
14072.265625,-91.869696655331808
14077.1484375,-91.267001789157888
14082.03125,-91.006141717239743
14086.9140625,-91.487779012606566
14091.796875,-91.716264878792302
14096.6796875,-91.584756693498719
14101.5625,-91.25377837280773
14106.4453125,-91.386908539032078
14111.328125,-91.077398255568852
14116.2109375,-90.963775423009281
14121.09375,-91.939696803277201
14125.9765625,-92.416224710480819
14130.859375,-92.491162552745379
14135.7421875,-92.63464332714139
14140.625,-92.126178449297782
14145.5078125,-92.478020918295755
14150.390625,-92.727971232564315
14155.2734375,-92.972871457288164
14160.15625,-93.371066845136539
14165.0390625,-94.010226155264718
14169.921875,-94.222623920831623
14174.8046875,-94.460999489308378
14179.6875,-95.732385963256689
14184.5703125,-95.030733876076496
14189.453125,-94.207485518028619
14194.3359375,-95.694460305308837
14199.21875,-95.895089823781277
14204.1015625,-95.980995410569648
14208.984375,-96.783687145160982
14213.8671875,-96.470093934204556
14218.75,-96.60343869829866
14223.6328125,-96.328236846744559
14228.515625,-96.134656117943678
14233.3984375,-95.981656167257967
14238.28125,-96.145878033235462
14243.1640625,-95.329963444819271
14248.046875,-95.232914413515815
14252.9296875,-94.827909457354323
14257.8125,-94.609506735862951
14262.6953125,-94.124771623219502
14267.578125,-94.709500680091892
14272.4609375,-93.537298329905582
14277.34375,-93.709418785575537
14282.2265625,-93.642849529942524
14287.109375,-93.023815383154286
14291.9921875,-92.944335268752809
14296.875,-93.051661423218818
14301.7578125,-92.19172789219931
14306.640625,-92.440610122079633
14311.5234375,-91.907299482807787
14316.40625,-92.114579827234934
14321.2890625,-91.661219030837074
14326.171875,-91.42373795663751
14331.0546875,-91.352946230629399
14335.9375,-90.879508506398736
14340.8203125,-91.212933917411604
14345.703125,-91.021074205624487
14350.5859375,-91.147762356988139
14355.46875,-91.652456041740521
14360.3515625,-92.089830430622925
14365.234375,-91.412274347975824
14370.1171875,-91.543453146362722
14375,-91.006073438661616
14379.8828125,-90.956562410930928
14384.765625,-91.502057092495917
14389.6484375,-91.504713319400594
14394.53125,-92.548398350224019
14399.4140625,-92.549102978227722
14404.296875,-92.212936523804927
14409.1796875,-92.117064975719032
14414.0625,-92.999376397412021
14418.9453125,-93.105442179395936
14423.828125,-93.947757468663866
14428.7109375,-93.805420025801169
14433.59375,-93.737220329387569
14438.4765625,-94.200588759652106
14443.359375,-94.681308878620769
14448.2421875,-95.072757158637344
14453.125,-95.756932776716113
14458.0078125,-96.110377779715805
14462.890625,-96.021699073929994
14467.7734375,-96.045785359678248
14472.65625,-95.88893621667799
14477.5390625,-95.83006434251925
14482.421875,-95.642996539392712
14487.3046875,-95.95319964096683
14492.1875,-95.809400527309677
14497.0703125,-96.356219310313463
14501.953125,-95.750080355668103
14506.8359375,-96.004140580018657
14511.71875,-96.138110198776474
14516.6015625,-95.315357408347495
14521.484375,-95.087372347683896
14526.3671875,-94.78395628729362
14531.25,-94.77864385448936
14536.1328125,-94.207478573424268
14541.015625,-94.370484225093151
14545.8984375,-93.898886841697731
14550.78125,-93.667386224107986
14555.6640625,-92.342265108812995
14560.546875,-92.063639295415015
14565.4296875,-92.789509067922211
14570.3125,-92.569711557728255
14575.1953125,-91.778542724553574
14580.078125,-92.491371126477603
14584.9609375,-92.515808272614777
14589.84375,-92.532039787150723
14594.7265625,-91.390140121850408
14599.609375,-91.248759534589098
14604.4921875,-90.771214531834403
14609.375,-91.248699195519379
14614.2578125,-91.876501495568391
14619.140625,-91.144829024591985
14624.0234375,-91.016666209902183
14628.90625,-91.438113963314635
14633.7890625,-91.708430603054751
14638.671875,-91.818377366704055
14643.5546875,-91.746336389959197
14648.4375,-92.490245129741055
14653.3203125,-92.053216055515676
14658.203125,-92.859677716169102
14663.0859375,-92.674163018303815
14667.96875,-92.666598620605782
14672.8515625,-93.213008082428729
14677.734375,-92.937390183968517
14682.6171875,-93.415261376421924
14687.5,-93.690887691671463
14692.3828125,-93.739915735891302
14697.265625,-93.126261851488493
14702.1484375,-93.382133646346205
14707.03125,-94.600705221962841
14711.9140625,-94.586076014282582
14716.796875,-94.359181333477707
14721.6796875,-95.144428840823679
14726.5625,-95.798350198996587
14731.4453125,-95.966694891484707
14736.328125,-96.854650848694718
14741.2109375,-96.718237716608186
14746.09375,-96.791758206689536
14750.9765625,-96.503797511612021
14755.859375,-95.833319070325089
14760.7421875,-95.726492357044179
14765.625,-95.655986558552513
14770.5078125,-96.317149371289872
14775.390625,-95.444379178557099
14780.2734375,-95.241948389940617
14785.15625,-95.237933141272947
14790.0390625,-94.881139313253996
14794.921875,-95.164152051552847
14799.8046875,-94.626507077240291
14804.6875,-93.637354330322296
14809.5703125,-92.968834804749946
14814.453125,-93.688228256607601
14819.3359375,-93.528442657131762
14824.21875,-92.858066977206093
14829.1015625,-92.581936127013194
14833.984375,-92.472247604932505
14838.8671875,-92.290466447512983
14843.75,-92.379326961616442
14848.6328125,-92.203596681818553
14853.515625,-92.176435093880812
14858.3984375,-92.206187780469477
14863.28125,-92.037337695613601
14868.1640625,-91.655163177119647
14873.046875,-91.747901465195724
14877.9296875,-91.703589207477378
14882.8125,-91.639931177888883
14887.6953125,-91.196031681246339
14892.578125,-91.894673413324753
14897.4609375,-91.855392480041459
14902.34375,-91.721867748143723
14907.2265625,-91.880335095425295
14912.109375,-91.83730854327905
14916.9921875,-91.989148449350679
14921.875,-92.481636062524331
14926.7578125,-92.056952978165498
14931.640625,-92.510256484209791
14936.5234375,-92.827166661485577
14941.40625,-93.294703940544281
14946.2890625,-93.207063945798069
14951.171875,-93.622686368243251
14956.0546875,-93.220489874908466
14960.9375,-93.886067695127551
14965.8203125,-94.801025613368125
14970.703125,-94.919942397574914
14975.5859375,-95.179034972660361
14980.46875,-94.854424012912816
14985.3515625,-95.175812162789256
14990.234375,-95.928186982348635
14995.1171875,-95.630428359291656
15000,-95.262104243214736
15004.8828125,-95.205778007992336
15009.765625,-96.382919402573179
15014.6484375,-95.672053924720558
15019.53125,-95.592590036972368
15024.4140625,-95.359532579488132
15029.296875,-96.197089437782552
15034.1796875,-96.086061365656974
15039.0625,-95.71112290499812
15043.9453125,-95.48665136189976
15048.828125,-94.755852864921167
15053.7109375,-94.718990417795652
15058.59375,-94.536720686111806
15063.4765625,-94.351670572824986
15068.359375,-93.903742971943842
15073.2421875,-93.759249329095113
15078.125,-93.605746092968218
15083.0078125,-93.238217888018582
15087.890625,-93.510547569347125
15092.7734375,-93.798853013025152
15097.65625,-92.616159945104869
15102.5390625,-92.460961860853089
15107.421875,-92.317972914176579
15112.3046875,-92.259634655786954
15117.1875,-92.234139155038974
15122.0703125,-91.618991206510458
15126.953125,-92.455221142173627
15131.8359375,-92.305797548522136
15136.71875,-91.772626030185265
15141.6015625,-91.178752725115814
15146.484375,-91.922889615251435
15151.3671875,-91.357808110647483
15156.25,-90.870053119637532
15161.1328125,-91.318024722700443
15166.015625,-91.53938951339812
15170.8984375,-92.011673115315887
15175.78125,-92.192223883716139
15180.6640625,-92.11727469732449
15185.546875,-92.162713391499778
15190.4296875,-92.020883332877887
15195.3125,-91.715595093348483
15200.1953125,-92.756317162351536
15205.078125,-93.181361064648684
15209.9609375,-93.503552986639306
15214.84375,-93.161239747756753
15219.7265625,-93.535510787342758
15224.609375,-94.157646137678327
15229.4921875,-94.832712633817891
15234.375,-94.056862312548162
15239.2578125,-93.88217803404531
15244.140625,-94.781631166305658
15249.0234375,-95.063556686778242
15253.90625,-95.310960925847198
15258.7890625,-95.638246077467443
15263.671875,-95.744715114320627
15268.5546875,-95.947576212327576
15273.4375,-95.631736459686337
15278.3203125,-95.987039607398572
15283.203125,-95.911445735398587
15288.0859375,-95.572697777142977
15292.96875,-95.574044460324856
15297.8515625,-95.413897521724152
15302.734375,-95.645058728776903
15307.6171875,-95.755297478105646
15312.5,-95.10116149190425
15317.3828125,-94.966767768896645
15322.265625,-94.944305600470997
15327.1484375,-94.066291978484614
15332.03125,-93.833718468199066
15336.9140625,-94.524843711717423
15341.796875,-94.358950656352633
15346.6796875,-93.945099296071604
15351.5625,-93.055273366103222
15356.4453125,-93.067836494918282
15361.328125,-92.407985538332596
15366.2109375,-92.386492759555949
15371.09375,-92.293430591933813
15375.9765625,-92.58095826998094
15380.859375,-92.32539217413472
15385.7421875,-91.947166866292989
15390.625,-91.544125729082126
15395.5078125,-92.258516903369255
15400.390625,-92.312269231545585
15405.2734375,-92.05727015427243
15410.15625,-91.985137396515441
15415.0390625,-91.251715430755169
15419.921875,-92.298841014072423
15424.8046875,-91.92110770321915
15429.6875,-91.648907823835344
15434.5703125,-91.878962882420879
15439.453125,-92.065457526643229
15444.3359375,-92.115865062447128
15449.21875,-92.335505066535219
15454.1015625,-92.206629676976846
15458.984375,-93.005838689907961
15463.8671875,-92.50417226589731
15468.75,-92.952912888108813
15473.6328125,-93.328436553313765
15478.515625,-93.107818606127466
15483.3984375,-93.345064518663747
15488.28125,-93.729861940022388
15493.1640625,-94.488503217664459
15498.046875,-95.044848454607873
15502.9296875,-94.180162733979969
15507.8125,-93.752640800249637
15512.6953125,-94.059331153339713
15517.578125,-95.047517060962832
15522.4609375,-95.766742021607939
15527.34375,-96.111996100405847
15532.2265625,-96.694533776001904
15537.109375,-96.289702578819444
15541.9921875,-96.038599066153481
15546.875,-95.335014507696641
15551.7578125,-96.442613971167589
15556.640625,-96.787433471331724
15561.5234375,-96.122521764423226
15566.40625,-96.122728943402635
15571.2890625,-95.392992439370673
15576.171875,-95.357777794694698
15581.0546875,-94.717397578100361
15585.9375,-94.335095733069835
15590.8203125,-94.006949768113316
15595.703125,-95.270803947159166
15600.5859375,-93.868164694323454
15605.46875,-93.678919203368224
15610.3515625,-93.610934480023587
15615.234375,-93.86954129786659
15620.1171875,-93.416156186788712
15625,-92.785959293640673
15629.8828125,-92.979197274554707
15634.765625,-92.440728024959952
15639.6484375,-92.188601786756522
15644.53125,-92.509739879975371
15649.4140625,-92.300222611871462
15654.296875,-92.537107892849221
15659.1796875,-92.668226081040487
15664.0625,-92.733589904352328
15668.9453125,-91.936054947753718
15673.828125,-91.798972072696174
15678.7109375,-92.247280372609993
15683.59375,-92.508816059653057
15688.4765625,-92.523757239921224
15693.359375,-91.700184128353627
15698.2421875,-91.611023202771719
15703.125,-91.396492055806647
15708.0078125,-91.016918516110067
15712.890625,-92.286432914556912
15717.7734375,-91.879709607436268
15722.65625,-92.146246424535917
15727.5390625,-92.550957635662868
15732.421875,-92.122031782500301
15737.3046875,-93.124913039652427
15742.1875,-93.442717094502896
15747.0703125,-93.114267412175508
15751.953125,-93.703599595617732
15756.8359375,-93.91082973927081
15761.71875,-94.216198622383658
15766.6015625,-94.565368092661089
15771.484375,-95.01063719859674
15776.3671875,-94.819007041560525
15781.25,-94.470893028942484
15786.1328125,-95.758559501073648
15791.015625,-95.900925831813865
15795.8984375,-95.771503905412914
15800.78125,-95.840470709309102
15805.6640625,-96.508767606577038
15810.546875,-96.630577893499051
15815.4296875,-96.80037176352468
15820.3125,-96.314742557341887
15825.1953125,-96.230915282300685
15830.078125,-96.155137693575398
15834.9609375,-95.918991424332361
15839.84375,-95.470611689846706
15844.7265625,-95.414038260132074
15849.609375,-95.376432679197748
15854.4921875,-95.048122532928886
15859.375,-94.658270556200691
15864.2578125,-94.352856753342962
15869.140625,-93.675070411659576
15874.0234375,-93.152923305385144
15878.90625,-93.118298152595457
15883.7890625,-93.532320059305533
15888.671875,-93.414803745653202
15893.5546875,-93.12937825403344
15898.4375,-92.997221183034569
15903.3203125,-92.693619517199949
15908.203125,-92.090303545976781
15913.0859375,-92.232362647969865
15917.96875,-92.434386483591339
15922.8515625,-92.279672555755809
15927.734375,-93.397298345015813
15932.6171875,-93.338410748790963
15937.5,-92.191868574540138
15942.3828125,-91.894294683139805
15947.265625,-92.303520881400146
15952.1484375,-92.222914257389718
15957.03125,-92.083666768614805
15961.9140625,-91.534257899066603
15966.796875,-92.458230634185057
15971.6796875,-92.561058334268949
15976.5625,-92.346585769490247
15981.4453125,-92.761544967013151
15986.328125,-92.486567664362497
15991.2109375,-92.739839224411909
15996.09375,-92.549170591638614
16000.9765625,-92.192508824938315
16005.859375,-91.90146740011906
16010.7421875,-93.638065813172773
16015.625,-94.44881769857831
16020.5078125,-93.441692532217786
16025.390625,-93.968300599281136
16030.2734375,-94.100800748008425
16035.15625,-94.80335846711894
16040.0390625,-95.361831219904914
16044.921875,-95.393543166771778
16049.8046875,-95.761027234012658
16054.6875,-95.738855771788451
16059.5703125,-95.536785523203974
16064.453125,-96.371043005481141
16069.3359375,-96.638182179368187
16074.21875,-95.953073495116882
16079.1015625,-95.337509819483003
16083.984375,-96.045346079851868
16088.8671875,-96.282330831576843
16093.75,-96.058281236835086
16098.6328125,-95.988982438383914
16103.515625,-96.183608700137512
16108.3984375,-95.04324508142912
16113.28125,-94.759031297730004
16118.1640625,-94.17908166725374
16123.046875,-94.067567555431594
16127.9296875,-95.175287743407679
16132.8125,-94.121199758372356
16137.6953125,-93.539128423599948
16142.578125,-93.627423138177903
16147.4609375,-93.709290311798213
16152.34375,-93.154117076410671
16157.2265625,-93.370659153462512
16162.109375,-93.326143698956059
16166.9921875,-93.014555602470637
16171.875,-92.46212313982754
16176.7578125,-92.292918057899072
16181.640625,-92.551297257038598
16186.5234375,-92.633671640607972
16191.40625,-92.045380334706749
16196.2890625,-92.832690765446728
16201.171875,-92.626868253668675
16206.0546875,-91.538310132639523
16210.9375,-91.788203382622527
16215.8203125,-91.51934420626813
16220.703125,-92.031195766979891
16225.5859375,-92.172588736519359
16230.46875,-92.403262013924419
16235.3515625,-92.521707252731687
16240.234375,-93.016901658708946
16245.1171875,-92.389044375947179
16250,-92.313653076646531
16254.8828125,-92.441119676577188
16259.765625,-92.643125810314245
16264.6484375,-92.681659608429698
16269.53125,-93.12663196948688
16274.4140625,-93.371118125920717
16279.296875,-94.015560962451886
16284.1796875,-93.643626899092069
16289.0625,-94.689074682170187
16293.9453125,-94.578350758555445
16298.828125,-94.684547067139121
16303.7109375,-95.909130583712454
16308.59375,-95.308027706282246
16313.4765625,-94.880783153154326
16318.359375,-95.425913512708007
16323.2421875,-95.145744768168555
16328.125,-94.63863964414594
16333.0078125,-95.745210930216615
16337.890625,-96.880056160095421
16342.7734375,-96.474732130116763
16347.65625,-96.27407125827618
16352.5390625,-96.089299006920029
16357.421875,-95.576594150811687
16362.3046875,-96.103728107800436
16367.1875,-95.927896568314964
16372.0703125,-95.229269299245729
16376.953125,-94.704742061932194
16381.8359375,-95.317529417385302
16386.71875,-94.260817944518465
16391.6015625,-94.785716851651728
16396.484375,-93.493934978712531
16401.3671875,-94.171641062105138
16406.25,-93.316508515962425
16411.1328125,-94.492929490737225
16416.015625,-93.741284989630884
16420.8984375,-93.400147979457614
16425.78125,-93.469366247257625
16430.6640625,-92.847385043240507
16435.546875,-92.444671895549135
16440.4296875,-92.85581413473264
16445.3125,-92.109558718001296
16450.1953125,-92.18458587149739
16455.078125,-92.096321595831114
16459.9609375,-91.761220915807584
16464.84375,-91.979867284274164
16469.7265625,-91.794104266171317
16474.609375,-91.920813011861725
16479.4921875,-91.742013569752203
16484.375,-91.806620583670394
16489.2578125,-91.710854362048309
16494.140625,-91.850165447429589
16499.0234375,-92.131256115352599
16503.90625,-92.202828750507706
16508.7890625,-91.982479343820984
16513.671875,-91.90048098468877
16518.5546875,-92.848137292761976
16523.4375,-93.165765207789235
16528.3203125,-93.446985980451132
16533.203125,-93.489361903502271
16538.0859375,-93.867693184468536
16542.96875,-94.09348773204988
16547.8515625,-94.082207569983879
16552.734375,-94.105046928097721
16557.6171875,-93.944823846566109
16562.5,-94.450902719087665
16567.3828125,-95.635946899797574
16572.265625,-95.080633939272047
16577.1484375,-95.371767943500402
16582.03125,-95.273853861696665
16586.9140625,-95.357930108475529
16591.796875,-96.04190960003892
16596.6796875,-96.539388711771124
16601.5625,-95.531344464610797
16606.4453125,-95.470489375762753
16611.328125,-95.823730940117628
16616.2109375,-95.204101605354495
16621.09375,-95.407717054093411
16625.9765625,-96.00292264202443
16630.859375,-96.262406394768647
16635.7421875,-95.177620198077364
16640.625,-95.083934358872909
16645.5078125,-95.325246596437609
16650.390625,-95.349985242204639
16655.2734375,-94.807082985367899
16660.15625,-94.211406691232867
16665.0390625,-93.922218830962208
16669.921875,-93.641125148824202
16674.8046875,-93.068127753681637
16679.6875,-93.14255586414501
16684.5703125,-93.644098325650447
16689.453125,-93.033708165047315
16694.3359375,-92.765825184485863
16699.21875,-92.181555776010939
16704.1015625,-92.227176445907503
16708.984375,-92.426126244223695
16713.8671875,-92.284704088702952
16718.75,-92.11296458345096
16723.6328125,-92.019227952409395
16728.515625,-91.871942852888324
16733.3984375,-92.065326114072661
16738.28125,-91.802651679519101
16743.1640625,-91.59663510250347
16748.046875,-92.694107439879474
16752.9296875,-92.439118666771662
16757.8125,-92.098347969169055
16762.6953125,-92.637631962305193
16767.578125,-92.143342838422086
16772.4609375,-92.853029467947465
16777.34375,-92.667879041785653
16782.2265625,-93.126732007886204
16787.109375,-92.394400501824521
16791.9921875,-92.934001334895157
16796.875,-93.211516380254608
16801.7578125,-94.088843506000842
16806.640625,-93.376473709050245
16811.5234375,-93.708965524203137
16816.40625,-93.947197489666962
16821.2890625,-94.175198038826721
16826.171875,-94.513627858661536
16831.0546875,-94.322065037192829
16835.9375,-94.761024753846527
16840.8203125,-94.973470801587496
16845.703125,-95.450079730359988
16850.5859375,-95.227173329453592
16855.46875,-95.367139187712354
16860.3515625,-95.815530492175071
16865.234375,-95.618650857302114
16870.1171875,-96.084206352721111
16875,-96.089752248377323
16879.8828125,-95.739409836955289
16884.765625,-95.47501632360985
16889.6484375,-95.873883322317084
16894.53125,-95.144938030298235
16899.4140625,-94.650187434993967
16904.296875,-95.147131976863776
16909.1796875,-95.429449125788764
16914.0625,-94.768717949682866
16918.9453125,-94.683059009950782
16923.828125,-94.559619845494893
16928.7109375,-94.640156459121712
16933.59375,-94.205645987075684
16938.4765625,-93.343643984259728
16943.359375,-93.3280237392066
16948.2421875,-93.512458443106169
16953.125,-92.663719444483689
16958.0078125,-92.817007749225908
16962.890625,-92.714946912487122
16967.7734375,-92.83542563152173
16972.65625,-92.227459391083514
16977.5390625,-92.470469056757565
16982.421875,-93.044796589615117
16987.3046875,-92.20156146150984
16992.1875,-91.975604512272113
16997.0703125,-92.107647044681073
17001.953125,-92.068383340678253
17006.8359375,-91.954621030567097
17011.71875,-92.168989659407075
17016.6015625,-92.489522320838589
17021.484375,-92.294006962601486
17026.3671875,-92.170734778764114
17031.25,-92.003471767822717
17036.1328125,-92.265227406232512
17041.015625,-92.074596373596492
17045.8984375,-91.878774950679528
17050.78125,-92.195022593399699
17055.6640625,-91.986279561702844
17060.546875,-92.789915322163026
17065.4296875,-93.254757602686908
17070.3125,-92.584810056501283
17075.1953125,-93.467652076682967
17080.078125,-93.147323640944606
17084.9609375,-93.880453867143459
17089.84375,-94.159870537218836
17094.7265625,-93.971030263261369
17099.609375,-94.968483418151408
17104.4921875,-94.010760894784866
17109.375,-94.766497723863353
17114.2578125,-94.970689870197887
17119.140625,-94.769033142000296
17124.0234375,-94.707618545037946
17128.90625,-95.95252708456249
17133.7890625,-95.302449009475509
17138.671875,-95.639309883962866
17143.5546875,-95.670701806909477
17148.4375,-96.062105428912886
17153.3203125,-96.121150229530343
17158.203125,-95.394539809227311
17163.0859375,-95.574478464158958
17167.96875,-94.985417864808568
17172.8515625,-95.387627503806385
17177.734375,-95.003597417450692
17182.6171875,-94.881031313605575
17187.5,-94.516143469729514
17192.3828125,-93.873127696839788
17197.265625,-93.776003324705144
17202.1484375,-93.458537179682025
17207.03125,-93.409637046266894
17211.9140625,-92.824423702141615
17216.796875,-93.689661711148858
17221.6796875,-93.29267168065789
17226.5625,-92.770388673205474
17231.4453125,-92.683175996511579
17236.328125,-92.313466967720672
17241.2109375,-92.638233699501228
17246.09375,-92.630318229061785
17250.9765625,-92.179089605069052
17255.859375,-91.935472952734699
17260.7421875,-92.563854850387074
17265.625,-92.60448173981581
17270.5078125,-91.910055382851667
17275.390625,-91.823786687808393
17280.2734375,-91.562903921476831
17285.15625,-91.650349562350215
17290.0390625,-91.991580130393004
17294.921875,-92.029544539012491
17299.8046875,-91.959216754912632
17304.6875,-92.722509834329259
17309.5703125,-92.584782757373532
17314.453125,-92.029534650419379
17319.3359375,-92.21796316836938
17324.21875,-92.833932670894285
17329.1015625,-92.736425680236295
17333.984375,-93.162533172065395
17338.8671875,-93.454835842336905
17343.75,-93.126218338775857
17348.6328125,-93.844001911965876
17353.515625,-93.409858633213588
17358.3984375,-93.74719039309737
17363.28125,-94.946017174385972
17368.1640625,-95.318573963816377
17373.046875,-94.286393581257556
17377.9296875,-93.709477931871248
17382.8125,-94.467072011471515
17387.6953125,-94.544547334399951
17392.578125,-94.348800977510621
17397.4609375,-94.25659159030559
17402.34375,-94.460639066037189
17407.2265625,-95.394722563823962
17412.109375,-95.354210659023707
17416.9921875,-95.722451690738637
17421.875,-95.387749078221091
17426.7578125,-95.137416079573825
17431.640625,-94.826393764503251
17436.5234375,-94.677410088705599
17441.40625,-94.65652670370288
17446.2890625,-94.658634875669421
17451.171875,-94.377034027421018
17456.0546875,-94.120634986526909
17460.9375,-94.288450386334603
17465.8203125,-94.205710424911345
17470.703125,-94.011545490646654
17475.5859375,-93.316357520609742
17480.46875,-92.61076645376626
17485.3515625,-92.946839189168657
17490.234375,-92.962970520387174
17495.1171875,-92.727559689974797
17500,-92.418356726248817
17504.8828125,-92.764792643659007
17509.765625,-92.145671216906635
17514.6484375,-92.433750606659913
17519.53125,-92.441799599693155
17524.4140625,-91.612697620383855
17529.296875,-92.25562273256736
17534.1796875,-91.768747479855165
17539.0625,-91.995055795756215
17543.9453125,-91.860245580896716
17548.828125,-92.030582640031824
17553.7109375,-92.148385974151367
17558.59375,-91.579495596627737
17563.4765625,-91.610280228034213
17568.359375,-91.573184028434
17573.2421875,-91.925457151246817
17578.125,-91.845369006867088
17583.0078125,-91.812155241124103
17587.890625,-92.694213999314883
17592.7734375,-93.39327278733208
17597.65625,-92.743755734533408
17602.5390625,-92.225543318234486
17607.421875,-92.40360858956052
17612.3046875,-93.054536902920901
17617.1875,-93.913793279912753
17622.0703125,-93.478858406001592
17626.953125,-94.859856115743412
17631.8359375,-94.038681378582382
17636.71875,-93.858330258730433
17641.6015625,-93.833629675615128
17646.484375,-94.218624734578498
17651.3671875,-94.054335797589118
17656.25,-93.932141086444275
17661.1328125,-94.43753772839861
17666.015625,-94.264169988763214
17670.8984375,-94.358495730544277
17675.78125,-94.247766071518669
17680.6640625,-94.519307244119119
17685.546875,-94.214073999151879
17690.4296875,-94.527201722218706
17695.3125,-94.740406863882185
17700.1953125,-94.93921288999617
17705.078125,-94.098552561101357
17709.9609375,-94.124162377018976
17714.84375,-94.226341998059524
17719.7265625,-93.783864660310229
17724.609375,-94.211440037157587
17729.4921875,-94.524334284509195
17734.375,-94.316190471086571
17739.2578125,-93.8742657796694
17744.140625,-94.169023862230148
17749.0234375,-93.314476438293042
17753.90625,-93.012177078125134
17758.7890625,-93.625851222782543
17763.671875,-92.875155207822843
17768.5546875,-92.28937153764214
17773.4375,-92.32564693293277
17778.3203125,-92.426546546465445
17783.203125,-92.181854363024257
17788.0859375,-93.031650436665231
17792.96875,-92.57902025136012
17797.8515625,-92.701413400160462
17802.734375,-92.097273580623309
17807.6171875,-91.848902781864737
17812.5,-91.832149031978389
17817.3828125,-92.866931227222963
17822.265625,-92.124998724407007
17827.1484375,-91.928359183106565
17832.03125,-91.896239134862327
17836.9140625,-91.518447696753427
17841.796875,-91.735088841548361
17846.6796875,-91.907789890366089
17851.5625,-92.778555171709826
17856.4453125,-92.82768327686405
17861.328125,-92.234011581337228
17866.2109375,-92.621958412599312
17871.09375,-92.52300563647303
17875.9765625,-92.323581668692057
17880.859375,-92.945551229869977
17885.7421875,-92.671784087737294
17890.625,-93.000207004208079
17895.5078125,-94.223992143156693
17900.390625,-93.571578480205929
17905.2734375,-93.867089560438544
17910.15625,-93.293306520685562
17915.0390625,-93.679363317865082
17919.921875,-94.036094519811513
17924.8046875,-94.055474119693386
17929.6875,-93.942562947464708
17934.5703125,-94.447032030071881
17939.453125,-94.918378274442446
17944.3359375,-94.335378979132173
17949.21875,-94.18255825043309
17954.1015625,-94.028805908267969
17958.984375,-93.875522175216858
17963.8671875,-93.801275380561066
17968.75,-94.15687846513751
17973.6328125,-94.105312741906729
17978.515625,-93.874496416489052
17983.3984375,-94.39692542963941
17988.28125,-93.719361023208478
17993.1640625,-92.990736891100596
17998.046875,-93.659830160030907
18002.9296875,-93.460374271959878
18007.8125,-93.149262425507345
18012.6953125,-93.340946900984875
18017.578125,-92.950034262679949
18022.4609375,-93.192294559496702
18027.34375,-93.333288696194913
18032.2265625,-92.372981190663097
18037.109375,-93.176883023548044
18041.9921875,-92.529370630189447
18046.875,-92.037542748085684
18051.7578125,-92.651313584237514
18056.640625,-92.833306045653771
18061.5234375,-92.808161708175874
18066.40625,-92.434474078016891
18071.2890625,-92.54519121316109
18076.171875,-92.286961709391676
18081.0546875,-91.683866370460493
18085.9375,-92.60288374229269
18090.8203125,-92.407296709568399
18095.703125,-91.950881550147585
18100.5859375,-91.897057983435687
18105.46875,-92.285791279921483
18110.3515625,-92.403771138556991
18115.234375,-92.592831499416675
18120.1171875,-92.529462102668674
18125,-92.988177891499873
18129.8828125,-93.105506992376036
18134.765625,-92.55326880967155
18139.6484375,-92.851748030917761
18144.53125,-92.94961268494545
18149.4140625,-92.737695471877288
18154.296875,-92.855415047415818
18159.1796875,-93.422055163916994
18164.0625,-93.446609231613209
18168.9453125,-93.40619418643297
18173.828125,-93.647986134903988
18178.7109375,-93.933002486011659
18183.59375,-94.012786921505807
18188.4765625,-93.69171351241846
18193.359375,-93.822569509478058
18198.2421875,-93.685427704610561
18203.125,-94.437619793437918
18208.0078125,-94.573103139311371
18212.890625,-94.530418502491656
18217.7734375,-94.350961151848935
18222.65625,-94.242506809910026
18227.5390625,-94.156748584991334
18232.421875,-93.879878501360821
18237.3046875,-94.042489067958627
18242.1875,-93.512230809830115
18247.0703125,-93.904107986361467
18251.953125,-93.648433046793244
18256.8359375,-93.470000307749572
18261.71875,-93.69368043475481
18266.6015625,-93.624347256204445
18271.484375,-93.510624479624369
18276.3671875,-93.778200988149564
18281.25,-92.516972079296039
18286.1328125,-93.251612332528865
18291.015625,-93.168063258309374
18295.8984375,-92.860036365378107
18300.78125,-93.375672122479699
18305.6640625,-92.931859096476629
18310.546875,-92.522902033503414
18315.4296875,-92.739548677028893
18320.3125,-92.801699486057288
18325.1953125,-92.788759510663837
18330.078125,-92.552120446445926
18334.9609375,-92.471041549070975
18339.84375,-92.435658449400378
18344.7265625,-92.14416361945672
18349.609375,-92.679309028842056
18354.4921875,-92.896531665256163
18359.375,-93.51041575033976
18364.2578125,-92.829985059247235
18369.140625,-92.271386757231852
18374.0234375,-92.166397289815677
18378.90625,-92.527414324541979
18383.7890625,-91.797758208684456
18388.671875,-91.894720323798083
18393.5546875,-92.515953941064751
18398.4375,-92.201083071328057
18403.3203125,-92.169209582745594
18408.203125,-93.314661328691415
18413.0859375,-93.170863923217098
18417.96875,-93.615756862339879
18422.8515625,-93.390199967493942
18427.734375,-94.271331119930707
18432.6171875,-93.175754849780958
18437.5,-93.740182445761718
18442.3828125,-93.134223233519918
18447.265625,-93.415891491782631
18452.1484375,-93.704653890985753
18457.03125,-94.111665339003792
18461.9140625,-94.039061207876088
18466.796875,-93.419287265132084
18471.6796875,-94.316437813939132
18476.5625,-93.746707297955524
18481.4453125,-94.05686162325415
18486.328125,-93.291761046360122
18491.2109375,-93.651733734174059
18496.09375,-93.400063235552707
18500.9765625,-93.068510460591341
18505.859375,-93.011758379503647
18510.7421875,-93.865571641619908
18515.625,-93.03752324898457
18520.5078125,-92.808806388089934
18525.390625,-93.321515657523761
18530.2734375,-93.489193161228116
18535.15625,-93.947219984367209
18540.0390625,-93.029321707565316
18544.921875,-92.428664732617193
18549.8046875,-92.613320907902178
18554.6875,-92.511450691577465
18559.5703125,-92.285112248341989
18564.453125,-92.367818019398996
18569.3359375,-92.972863397421264
18574.21875,-92.664131691846819
18579.1015625,-92.110522740658709
18583.984375,-92.324147509811553
18588.8671875,-93.12499129055972
18593.75,-92.945908072499051
18598.6328125,-92.518418455737276
18603.515625,-92.87878475751441
18608.3984375,-92.50023531745731
18613.28125,-92.687991559211468
18618.1640625,-92.800988070157928
18623.046875,-92.76289671702132
18627.9296875,-92.672740856771838
18632.8125,-92.66573165095167
18637.6953125,-92.695236989989382
18642.578125,-92.680418143547485
18647.4609375,-92.218969404230052
18652.34375,-92.28580668011405
18657.2265625,-92.545373946452059
18662.109375,-93.040227663300058
18666.9921875,-93.019163067027165
18671.875,-93.196081697108468
18676.7578125,-92.639936701132342
18681.640625,-92.781219953039397
18686.5234375,-93.251490774421129
18691.40625,-92.701330111261228
18696.2890625,-92.681693067763774
18701.171875,-92.509984248490994
18706.0546875,-92.665247564564936
18710.9375,-92.984422246777967
18715.8203125,-93.80546594476948
18720.703125,-93.302962090405799
18725.5859375,-92.806801802886042
18730.46875,-93.042899509220035
18735.3515625,-93.19434811852021
18740.234375,-93.358200880396609
18745.1171875,-93.505434943203426
18750,-93.499373901889911
18754.8828125,-93.478181174040856
18759.765625,-93.416923619488102
18764.6484375,-93.676578626038989
18769.53125,-93.431833358644596
18774.4140625,-93.168310662753399
18779.296875,-93.082387453668488
18784.1796875,-93.281529676858938
18789.0625,-93.40731625565553
18793.9453125,-93.324792353259369
18798.828125,-93.212306131621148
18803.7109375,-93.328966393476833
18808.59375,-93.546010703745168
18813.4765625,-93.486016976331882
18818.359375,-92.619905487545097
18823.2421875,-92.523800225184644
18828.125,-92.849859393612846
18833.0078125,-93.014938370650441
18837.890625,-93.184212937250024
18842.7734375,-92.905600224175657
18847.65625,-91.970151997311007
18852.5390625,-92.966600708013956
18857.421875,-92.95856943367184
18862.3046875,-92.84279815620539
18867.1875,-92.793311437660449
18872.0703125,-92.939927194280244
18876.953125,-93.223555134808208
18881.8359375,-92.993914677858029
18886.71875,-93.193604702099208
18891.6015625,-92.935105941265789
18896.484375,-92.422876713245316
18901.3671875,-93.240418426840051
18906.25,-93.051623727765843
18911.1328125,-92.902668912352112
18916.015625,-92.951304292076969
18920.8984375,-92.132749260438786
18925.78125,-92.477658773979684
18930.6640625,-92.641560236210466
18935.546875,-92.381890535299291
18940.4296875,-92.553427576583275
18945.3125,-92.952002974621621
18950.1953125,-92.385466261000872
18955.078125,-92.345005003798434
18959.9609375,-92.431810929427456
18964.84375,-93.062252340948277
18969.7265625,-93.16604384790368
18974.609375,-92.550682868029497
18979.4921875,-92.899647063794816
18984.375,-93.144633020461569
18989.2578125,-93.064748239837883
18994.140625,-93.059438769532818
18999.0234375,-92.965269998588866
19003.90625,-92.861716191746822
19008.7890625,-93.078289309176199
19013.671875,-92.904630813988106
19018.5546875,-93.479254631852768
19023.4375,-93.318135773157252
19028.3203125,-93.093015506639205
19033.203125,-92.715276226054684
19038.0859375,-93.412586996908104
19042.96875,-93.578655655138732
19047.8515625,-94.036624396749119
19052.734375,-93.5428227325134
19057.6171875,-92.410254201113261
19062.5,-93.037808575535692
19067.3828125,-93.05815142758631
19072.265625,-92.730607328830899
19077.1484375,-92.841676849540065
19082.03125,-92.689011049480484
19086.9140625,-93.186611783976062
19091.796875,-92.922488128781509
19096.6796875,-93.093402382960733
19101.5625,-93.917966389839819
19106.4453125,-93.49629432858741
19111.328125,-92.047368184523464
19116.2109375,-92.81861686701626
19121.09375,-93.637765977285028
19125.9765625,-92.537776232340562
19130.859375,-92.430271786002976
19135.7421875,-92.507448769976833
19140.625,-92.672078617963791
19145.5078125,-93.50671273848144
19150.390625,-93.002459722985236
19155.2734375,-92.68067683397885
19160.15625,-92.161421832237508
19165.0390625,-92.472446140330817
19169.921875,-92.348234602895872
19174.8046875,-92.337316386696742
19179.6875,-92.118531472684154
19184.5703125,-92.717760631158811
19189.453125,-92.845583791200781
19194.3359375,-92.16633856857851
19199.21875,-92.042183776701393
19204.1015625,-91.880421179244181
19208.984375,-93.120674846491454
19213.8671875,-92.427038250717928
19218.75,-91.856058395339929
19223.6328125,-92.044405744445541
19228.515625,-92.818412781759292
19233.3984375,-92.311325287123864
19238.28125,-92.539874949896429
19243.1640625,-93.602224095143001
19248.046875,-93.321047049888278
19252.9296875,-92.842467262373631
19257.8125,-92.44320771000568
19262.6953125,-92.453250928354237
19267.578125,-92.476951909561095
19272.4609375,-92.736794444804758
19277.34375,-92.16043172694711
19282.2265625,-93.425596919973088
19287.109375,-92.897086287106902
19291.9921875,-93.218614315617486
19296.875,-93.007232324230742
19301.7578125,-92.885088384385938
19306.640625,-93.354160467446178
19311.5234375,-92.80558427905936
19316.40625,-92.630205847269167
19321.2890625,-93.27845175018598
19326.171875,-93.409358413457241
19331.0546875,-92.734558590768046
19335.9375,-92.130302854452211
19340.8203125,-92.586545660598375
19345.703125,-92.812177589366286
19350.5859375,-92.578834256053781
19355.46875,-92.64761674592279
19360.3515625,-92.548639005874819
19365.234375,-92.178895278972917
19370.1171875,-92.939805559254097
19375,-93.411502873491401
19379.8828125,-92.816013278126661
19384.765625,-93.01800959143911
19389.6484375,-92.747263501366291
19394.53125,-92.678886906215396
19399.4140625,-91.912114101883219
19404.296875,-92.633254741691431
19409.1796875,-92.650365871939641
19414.0625,-92.862977500616779
19418.9453125,-92.908418566741346
19423.828125,-92.228583613887281
19428.7109375,-92.845779371000361
19433.59375,-92.854279412822365
19438.4765625,-92.997581022294327
19443.359375,-93.105362591999864
19448.2421875,-92.7636726658192
19453.125,-92.431754329478167
19458.0078125,-92.350524593840703
19462.890625,-92.742577312194271
19467.7734375,-92.87867227207947
19472.65625,-92.568690509798742
19477.5390625,-92.962822931050226
19482.421875,-92.942493152852862
19487.3046875,-92.932387270635473
19492.1875,-93.013990699697786
19497.0703125,-93.006591387762796
19501.953125,-92.623441052264965
19506.8359375,-93.184253628948113
19511.71875,-93.080414200440629
19516.6015625,-92.837484453568123
19521.484375,-93.3135030387987
19526.3671875,-92.817761487903155
19531.25,-92.915225201168596
19536.1328125,-92.485060914550488
19541.015625,-92.254642740636427
19545.8984375,-92.061236779269166
19550.78125,-93.005077796418561
19555.6640625,-92.954499474650248
19560.546875,-93.243065694019563
19565.4296875,-92.883337045468153
19570.3125,-92.608746985275999
19575.1953125,-92.665391324200201
19580.078125,-92.925219560109724
19584.9609375,-93.418601121983841
19589.84375,-93.776363397094627
19594.7265625,-92.615203702542345
19599.609375,-92.300800905038386
19604.4921875,-92.75036528770697
19609.375,-93.355549007568413
19614.2578125,-92.90803253138877
19619.140625,-92.062625282753672
19624.0234375,-92.527227305789268
19628.90625,-92.5454473022792
19633.7890625,-92.421454952176248
19638.671875,-92.257580253924885
19643.5546875,-92.499511422373772
19648.4375,-92.97427288871566
19653.3203125,-93.006153245612623
19658.203125,-93.506509917336231
19663.0859375,-93.240454035396397
19667.96875,-92.417208501602801
19672.8515625,-92.418772876038915
19677.734375,-92.763528418695103
19682.6171875,-92.821234752207573
19687.5,-93.480010027115185
19692.3828125,-93.074163133612075
19697.265625,-92.53919019791249
19702.1484375,-92.268568918843187
19707.03125,-92.235482537476244
19711.9140625,-92.971953549830872
19716.796875,-92.438742964588386
19721.6796875,-92.796253484518218
19726.5625,-92.821724210592649
19731.4453125,-92.282622298779074
19736.328125,-92.923659263360065
19741.2109375,-93.246269536124885
19746.09375,-92.373127624780665
19750.9765625,-92.441278475425506
19755.859375,-92.241929982858565
19760.7421875,-92.215356816672269
19765.625,-92.81627826756754
19770.5078125,-93.035155224473996
19775.390625,-92.479560392972431
19780.2734375,-92.71509577044236
19785.15625,-93.192190436090954
19790.0390625,-92.48645483573253
19794.921875,-93.047865260548605
19799.8046875,-93.312481933434697
19804.6875,-93.298321455224396
19809.5703125,-93.208520786672921
19814.453125,-92.656319314652507
19819.3359375,-92.68508946579972
19824.21875,-93.106325053480219
19829.1015625,-93.109104446607233
19833.984375,-92.858198237699924
19838.8671875,-92.730697467032556
19843.75,-92.735083285669774
19848.6328125,-93.060127437252206
19853.515625,-93.411783133908358
19858.3984375,-93.508981314938367
19863.28125,-92.937052704466453
19868.1640625,-93.369732506740462
19873.046875,-92.774873642627895
19877.9296875,-92.9381120747599
19882.8125,-92.827333354057828
19887.6953125,-93.245921942875668
19892.578125,-92.871179485266069
19897.4609375,-92.775920100381057
19902.34375,-92.655982333495018
19907.2265625,-92.886332048337025
19912.109375,-92.058316467640026
19916.9921875,-92.739209639950928
19921.875,-93.143813982671375
19926.7578125,-92.973235109565508
19931.640625,-92.306488922920735
19936.5234375,-92.572166370345371
19941.40625,-93.015372067940817
19946.2890625,-92.116851415016612
19951.171875,-92.509916242649425
19956.0546875,-92.878457932486853
19960.9375,-92.498235905326737
19965.8203125,-92.701870020568307
19970.703125,-93.082081212050582
19975.5859375,-92.174323074437879
19980.46875,-93.293804539729962
19985.3515625,-92.986497607649611
19990.234375,-92.046750580706274
19995.1171875,-92.52889184116377
20000,-94.638602413944298
